Time (s),Force (N) E1,Force (N) E2,Force (N) E3,Force (N) O1,Force (N) O2,Force (N) O3,Force (N) O4
0,-0.033,0.045,-0.062,-0.006,-0.006,-0.006,0.08
0.067,0.01,0.002,0.045,-0.006,0.08,0.102,-0.006
0.133,0.01,-0.041,-0.041,-0.006,0.037,0.059,0.037
0.2,-0.011,0.002,-0.105,0.037,-0.006,-0.006,0.08
0.267,-0.011,0.045,-0.041,-0.006,0.059,0.016,-0.006
0.333,0.01,0.045,-0.062,-0.006,0.037,0.123,0.059
0.4,0.01,-0.019,-0.105,0.037,-0.006,-0.006,0.145
0.467,0.01,-0.019,0.002,0.059,0.08,0.037,0.037
0.533,0.01,0.002,-0.041,-0.006,0.08,0.08,0.016
0.6,-0.033,0.045,-0.105,-0.006,-0.006,-0.006,0.08
0.667,-0.011,0.045,-0.019,-0.006,0.037,-0.006,0.059
0.733,0.01,-0.041,-0.019,-0.006,0.08,0.08,-0.006
0.8,0.01,-0.019,-0.105,0.016,-0.006,-0.006,0.08
0.867,-0.011,0.024,-0.084,0.037,0.016,-0.006,0.08
0.933,-0.011,0.045,-0.019,-0.006,0.059,0.123,-0.006
1,0.01,0.024,-0.105,-0.006,-0.006,0.037,0.08
1.067,0.01,-0.041,-0.084,0.037,0.016,-0.006,0.123
1.133,-0.011,-0.019,0.024,0.037,0.145,0.059,-0.006
1.2,-0.011,0.024,-0.105,-0.027,0.059,0.059,0.059
1.267,-0.033,0.045,-0.105,-0.006,-0.006,-0.006,0.102
1.333,0.01,0.024,0.002,-0.006,0.08,0.037,0.016
1.4,0.01,-0.019,-0.062,-0.006,0.037,0.059,0.016
1.467,0.01,0.002,-0.105,0.016,-0.006,-0.006,0.102
1.533,-0.033,0.024,-0.062,-0.006,0.037,0.059,0.016
1.6,-0.011,0.045,-0.041,-0.006,0.059,0.102,0.016
1.667,0.01,-0.019,-0.105,0.016,-0.006,-0.006,0.123
1.733,0.01,-0.041,-0.062,0.059,0.059,0.016,0.059
1.8,0.01,0.002,-0.041,-0.006,0.123,0.102,-0.006
1.867,-0.011,0.045,-0.105,-0.027,-0.006,0.016,0.059
1.933,-0.033,0.045,-0.105,-0.006,0.016,-0.006,0.102
2,-0.118,-0.041,0.002,-0.22,0.08,-0.37,-0.327
2.067,-2.499,-2.55,-1.027,-2.73,-1.164,-2.966,-2.73
2.133,-5.588,-5.897,-4.181,-5.668,-4.682,-5.947,-5.797
2.2,-5.824,-6.261,-6.283,-7.063,-6.033,-6.033,-5.969
2.267,-5.76,-6.154,-6.283,-6.72,-5.132,-5.926,-5.733
2.333,-5.738,-6.261,-6.218,-6.762,-4.832,-5.947,-5.175
2.4,-5.674,-6.261,-6.176,-6.784,-4.81,-5.99,-4.896
2.467,-5.653,-6.24,-6.24,-6.72,-4.832,-5.99,-4.832
2.533,-5.653,-6.283,-6.197,-6.698,-4.81,-6.012,-4.81
2.6,-5.653,-6.24,-6.197,-6.698,-4.81,-5.947,-4.81
2.667,-5.631,-6.154,-6.197,-6.677,-4.81,-5.862,-4.832
2.733,-5.631,-6.111,-6.24,-6.634,-4.81,-5.84,-4.832
2.8,-5.653,-6.111,-6.218,-6.677,-4.81,-5.84,-4.81
2.867,-5.588,-6.111,-6.24,-6.634,-4.746,-5.84,-4.81
2.933,-5.502,-6.09,-6.261,-6.591,-4.768,-5.819,-4.81
3,-5.481,-6.09,-6.283,-6.526,-4.789,-5.776,-4.832
3.067,-5.481,-6.068,-6.218,-6.526,-4.81,-5.776,-4.832
3.133,-5.502,-6.09,-6.154,-6.526,-4.768,-5.797,-4.81
3.2,-5.481,-6.09,-6.133,-6.526,-4.725,-5.69,-4.81
3.267,-5.481,-5.983,-6.111,-6.462,-4.746,-5.668,-4.81
3.333,-5.481,-5.94,-6.111,-6.441,-4.789,-5.668,-4.81
3.4,-5.438,-5.94,-6.111,-6.484,-4.81,-5.668,-4.81
3.467,-5.374,-5.94,-6.111,-6.462,-4.789,-5.647,-4.789
3.533,-5.395,-5.94,-6.111,-6.376,-4.725,-5.668,-4.789
3.6,-5.395,-5.918,-6.111,-6.355,-4.768,-5.647,-4.81
3.667,-5.352,-5.875,-6.09,-6.355,-4.789,-5.561,-4.81
3.733,-5.331,-5.897,-6.047,-6.355,-4.81,-5.518,-4.768
3.8,-5.309,-5.918,-6.047,-6.333,-4.768,-5.497,-4.746
3.867,-5.309,-5.811,-6.09,-6.355,-4.725,-5.518,-4.768
3.933,-5.288,-5.811,-6.09,-6.291,-4.768,-5.497,-4.81
4,-5.181,-5.768,-6.025,-6.291,-4.81,-5.475,-4.81
4.067,-5.159,-5.768,-5.961,-6.333,-4.81,-5.497,-4.768
4.133,-5.224,-5.768,-5.94,-6.291,-4.746,-5.475,-4.746
4.2,-5.224,-5.768,-5.94,-6.248,-4.703,-5.368,-4.789
4.267,-5.159,-5.768,-5.94,-6.269,-4.725,-5.411,-4.81
4.333,-5.159,-5.768,-5.961,-6.269,-4.703,-5.411,-4.81
4.4,-5.202,-5.661,-5.961,-6.226,-4.725,-5.368,-4.725
4.467,-5.116,-5.618,-5.94,-6.205,-4.725,-5.347,-4.746
4.533,-5.138,-5.639,-5.94,-6.183,-4.66,-5.325,-4.789
4.6,-5.138,-5.704,-5.961,-6.183,-4.682,-5.304,-4.81
4.667,-5.138,-5.639,-5.983,-6.097,-4.66,-5.239,-4.768
4.733,-5.116,-5.596,-6.025,-6.055,-4.682,-5.197,-4.725
4.8,-5.073,-5.596,-6.068,-6.033,-4.682,-5.175,-4.768
4.867,-5.052,-5.553,-6.111,-6.055,-4.66,-5.175,-4.789
4.933,-4.988,-5.532,-6.111,-6.097,-4.66,-5.197,-4.81
5,-4.966,-5.489,-6.025,-6.055,-4.66,-5.175,-4.746
5.067,-4.966,-5.446,-5.94,-6.012,-4.703,-5.154,-4.725
5.133,-4.945,-5.425,-5.94,-6.012,-4.682,-5.154,-4.768
5.2,-4.923,-5.468,-5.94,-5.969,-4.66,-5.111,-4.81
5.267,-4.945,-5.468,-5.94,-5.926,-4.66,-5.089,-4.81
5.333,-4.902,-5.468,-5.875,-5.926,-4.66,-5.068,-4.725
5.4,-4.816,-5.425,-5.811,-6.012,-4.703,-4.982,-4.703
5.467,-4.816,-5.425,-5.768,-5.99,-4.682,-4.982,-4.746
5.533,-4.795,-5.425,-5.789,-5.947,-4.66,-4.939,-4.725
5.6,-4.773,-5.425,-5.768,-5.947,-4.66,-4.918,-4.768
5.667,-4.795,-5.403,-5.768,-5.926,-4.66,-4.853,-4.725
5.733,-4.752,-5.425,-5.704,-5.883,-4.703,-4.81,-4.66
5.8,-4.666,-5.382,-5.639,-5.84,-4.725,-4.81,-4.66
5.867,-4.687,-5.253,-5.618,-5.84,-4.682,-4.789,-4.66
5.933,-4.644,-5.253,-5.596,-5.819,-4.66,-4.746,-4.725
6,-4.623,-5.253,-5.532,-5.819,-4.66,-4.768,-4.66
6.067,-4.602,-5.253,-5.489,-5.819,-4.725,-4.81,-4.682
6.133,-4.537,-5.21,-5.446,-5.711,-4.703,-4.81,-4.66
6.2,-4.516,-5.124,-5.489,-5.668,-4.682,-4.768,-4.66
6.267,-4.473,-5.082,-5.425,-5.668,-4.66,-4.746,-4.682
6.333,-4.451,-5.082,-5.425,-5.647,-4.682,-4.789,-4.682
6.4,-4.387,-5.082,-5.339,-5.668,-4.725,-4.81,-4.66
6.467,-4.366,-5.06,-5.253,-5.583,-4.703,-4.81,-4.639
6.533,-4.43,-4.996,-5.253,-5.518,-4.682,-4.746,-4.66
6.6,-4.451,-4.931,-5.189,-5.518,-4.66,-4.746,-4.682
6.667,-4.323,-4.931,-5.189,-5.518,-4.682,-4.768,-4.682
6.733,-4.237,-4.91,-5.21,-5.497,-4.746,-4.81,-4.682
6.8,-4.108,-4.91,-5.253,-5.433,-4.703,-4.768,-4.66
6.867,-4.108,-4.91,-5.232,-5.411,-4.66,-4.725,-4.66
6.933,-4.108,-4.803,-5.167,-5.347,-4.66,-4.768,-4.703
7,-4.108,-4.76,-5.189,-5.347,-4.682,-4.768,-4.682
7.067,-4.108,-4.738,-5.232,-5.325,-4.725,-4.789,-4.682
7.133,-4.108,-4.738,-5.253,-5.325,-4.703,-4.746,-4.66
7.2,-4.108,-4.674,-5.232,-5.347,-4.66,-4.703,-4.682
7.267,-4.108,-4.653,-5.167,-5.347,-4.66,-4.66,-4.725
7.333,-4.108,-4.631,-5.189,-5.347,-4.682,-4.703,-4.682
7.4,-4.108,-4.567,-5.232,-5.325,-4.725,-4.746,-4.682
7.467,-4.108,-4.567,-5.253,-5.325,-4.682,-4.703,-4.66
7.533,-4.108,-4.567,-5.21,-5.325,-4.66,-4.66,-4.703
7.6,-4.108,-4.567,-5.167,-5.325,-4.639,-4.66,-4.746
7.667,-4.108,-4.567,-5.21,-5.325,-4.682,-4.66,-4.703
7.733,-4.108,-4.567,-5.21,-5.325,-4.682,-4.703,-4.682
7.8,-4.108,-4.567,-5.189,-5.325,-4.66,-4.682,-4.66
7.867,-4.108,-4.567,-5.167,-5.325,-4.66,-4.66,-4.703
7.933,-4.087,-4.567,-5.146,-5.325,-4.639,-4.639,-4.746
8,-4.087,-4.567,-5.124,-5.325,-4.639,-4.66,-4.703
8.067,-4.108,-4.567,-5.103,-5.325,-4.639,-4.682,-4.66
8.133,-4.108,-4.567,-5.082,-5.325,-4.639,-4.682,-4.66
8.2,-4.108,-4.567,-5.103,-5.325,-4.639,-4.66,-4.682
8.267,-4.108,-4.567,-5.082,-5.325,-4.639,-4.66,-4.725
8.333,-4.108,-4.567,-5.082,-5.325,-4.639,-4.66,-4.703
8.4,-4.065,-4.545,-5.082,-5.325,-4.639,-4.682,-4.66
8.467,-4.087,-4.567,-5.103,-5.325,-4.639,-4.725,-4.66
8.533,-4.108,-4.567,-5.103,-5.325,-4.639,-4.703,-4.725
8.6,-4.087,-4.567,-5.082,-5.325,-4.639,-4.66,-4.725
8.667,-4.044,-4.545,-5.082,-5.325,-4.639,-4.66,-4.682
8.733,-4.044,-4.545,-5.082,-5.325,-4.639,-4.703,-4.66
8.8,-4.087,-4.567,-5.103,-5.325,-4.639,-4.703,-4.639
8.867,-4.108,-4.567,-5.082,-5.325,-4.639,-4.703,-4.703
8.933,-4.087,-4.567,-5.082,-5.304,-4.639,-4.66,-4.725
9,-4.022,-4.545,-5.082,-5.325,-4.639,-4.66,-4.682
9.067,-4.065,-4.545,-5.103,-5.282,-4.639,-4.725,-4.66
9.133,-4.087,-4.545,-5.124,-5.261,-4.639,-4.725,-4.639
9.2,-4.108,-4.567,-5.082,-5.218,-4.639,-4.682,-4.682
9.267,-4.065,-4.567,-5.082,-5.218,-4.639,-4.66,-4.66
9.333,-4.022,-4.524,-5.082,-5.261,-4.639,-4.682,-4.66
9.4,-4.065,-4.524,-5.103,-5.261,-4.639,-4.725,-4.639
9.467,-4.108,-4.524,-5.103,-5.261,-4.639,-4.725,-4.639
9.533,-4.108,-4.545,-5.082,-5.239,-4.639,-4.682,-4.66
9.6,-4.044,-4.567,-5.082,-5.197,-4.639,-4.66,-4.639
9.667,-4.044,-4.524,-5.082,-5.239,-4.639,-4.66,-4.639
9.733,-4.065,-4.502,-5.103,-5.261,-4.639,-4.725,-4.639
9.8,-4.108,-4.524,-5.103,-5.218,-4.639,-4.703,-4.639
9.867,-4.108,-4.545,-5.082,-5.197,-4.639,-4.682,-4.639
9.933,-4.044,-4.567,-5.082,-5.175,-4.639,-4.66,-4.639
10,-4.044,-4.524,-5.082,-5.218,-4.639,-4.682,-4.639
10.067,-4.087,-4.481,-5.103,-5.239,-4.639,-4.746,-4.639
10.133,-4.108,-4.524,-5.103,-5.218,-4.596,-4.703,-4.639
10.2,-4.087,-4.567,-5.082,-5.175,-4.617,-4.66,-4.639
10.267,-4.022,-4.545,-5.082,-5.197,-4.596,-4.639,-4.639
10.333,-4.044,-4.502,-5.082,-5.261,-4.617,-4.682,-4.639
10.4,-4.044,-4.502,-5.082,-5.239,-4.575,-4.725,-4.639
10.467,-4.108,-4.524,-5.082,-5.197,-4.596,-4.703,-4.639
10.533,-4.087,-4.567,-5.082,-5.175,-4.575,-4.66,-4.639
10.6,-4.022,-4.524,-5.082,-5.218,-4.596,-4.639,-4.639
10.667,-3.979,-4.481,-5.082,-5.261,-4.575,-4.66,-4.639
10.733,-4.001,-4.502,-5.103,-5.239,-4.532,-4.725,-4.639
10.8,-4.022,-4.545,-5.082,-5.197,-4.553,-4.682,-4.639
10.867,-3.979,-4.567,-5.082,-5.175,-4.575,-4.66,-4.639
10.933,-4.001,-4.524,-5.06,-5.197,-4.553,-4.639,-4.639
11,-3.958,-4.481,-5.082,-5.261,-4.51,-4.66,-4.639
11.067,-3.937,-4.502,-5.082,-5.218,-4.51,-4.66,-4.639
11.133,-3.958,-4.524,-5.039,-5.197,-4.553,-4.66,-4.639
11.2,-3.979,-4.567,-5.039,-5.175,-4.575,-4.66,-4.639
11.267,-3.958,-4.502,-5.06,-5.239,-4.532,-4.639,-4.639
11.333,-3.937,-4.481,-5.082,-5.261,-4.51,-4.639,-4.639
11.4,-3.937,-4.438,-5.082,-5.218,-4.489,-4.66,-4.639
11.467,-3.958,-4.395,-5.06,-5.175,-4.532,-4.639,-4.639
11.533,-3.979,-4.417,-5.017,-5.175,-4.575,-4.639,-4.639
11.6,-3.937,-4.438,-5.06,-5.218,-4.532,-4.639,-4.639
11.667,-3.937,-4.417,-5.082,-5.239,-4.489,-4.639,-4.639
11.733,-3.937,-4.438,-5.082,-5.218,-4.489,-4.639,-4.639
11.8,-3.958,-4.395,-5.017,-5.175,-4.553,-4.639,-4.639
11.867,-3.979,-4.395,-5.017,-5.197,-4.553,-4.639,-4.617
11.933,-3.937,-4.417,-5.06,-5.239,-4.532,-4.639,-4.617
12,-3.937,-4.395,-5.082,-5.239,-4.489,-4.639,-4.617
12.067,-3.937,-4.417,-5.082,-5.239,-4.51,-4.639,-4.617
12.133,-3.958,-4.395,-4.996,-5.197,-4.553,-4.639,-4.617
12.2,-3.958,-4.395,-5.039,-5.175,-4.553,-4.639,-4.639
12.267,-3.937,-4.395,-5.06,-5.175,-4.51,-4.639,-4.596
12.333,-3.937,-4.395,-5.082,-5.239,-4.489,-4.639,-4.575
12.4,-3.937,-4.395,-5.039,-5.218,-4.51,-4.639,-4.575
12.467,-3.979,-4.395,-5.017,-5.197,-4.553,-4.639,-4.575
12.533,-3.958,-4.395,-5.039,-5.154,-4.575,-4.639,-4.532
12.6,-2.092,-2.014,-5.082,-1.614,-3.974,-2.022,-2.108
12.667,0.182,0.152,-0.641,0.016,-0.563,0.016,0.037
12.733,0.16,0.088,0.024,0.016,-0.006,0.016,0.08
12.8,0.182,0.066,0.002,-0.006,0.059,0.102,-0.006
12.867,0.139,0.066,0.024,-0.006,0.037,-0.006,0.08
12.933,0.053,0.088,0.045,-0.006,-0.006,0.016,0.145
13,0.01,0.066,0.066,-0.006,0.059,0.059,0.016
13.067,0.01,0.066,0.002,-0.006,0.08,0.016,0.016
13.133,-0.033,0.066,-0.019,-0.006,-0.006,0.016,0.08
13.2,-0.011,0.066,0.024,-0.027,0.016,0.145,0.037
13.267,0.01,0.002,-0.062,-0.006,0.102,0.037,-0.006
13.333,0.01,-0.019,-0.084,0.059,0.016,0.016,0.08
13.4,0.01,0.024,-0.041,-0.006,-0.006,0.059,0.016
13.467,0.01,0.045,-0.062,-0.006,0.037,0.016,-0.006
13.533,0.01,0.045,-0.105,-0.006,0.037,-0.006,0.102
13.6,0.01,-0.019,-0.019,-0.006,-0.006,0.037,0.08
13.667,0.01,-0.019,-0.019,-0.006,0.08,0.037,-0.006
13.733,-0.011,0.024,-0.105,-0.006,0.08,-0.006,0.037
13.8,-0.033,0.045,-0.041,-0.006,-0.006,0.059,0.08
13.867,0.01,0.002,-0.019,-0.048,0.037,0.123,-0.006
13.933,0.01,-0.041,-0.105,-0.006,0.102,0.016,0.059
14,0.01,0.002,-0.084,0.059,0.016,0.037,0.102
14.067,-0.011,0.024,-0.062,-0.006,0.016,0.123,-0.006
14.133,0.01,0.066,-0.105,-0.006,0.059,-0.006,0.016
14.2,0.01,0.024,-0.041,-0.006,0.016,-0.006,0.145
14.267,0.01,-0.041,0.024,-0.006,-0.006,0.08,0.059
14.333,0.01,0.002,-0.105,-0.006,0.123,0.016,0.016
14.4,-0.033,0.045,-0.105,-0.006,0.059,-0.006,0.08
14.467,-0.011,0.045,0.024,-0.027,-0.006,0.102,0.08
14.533,0.01,-0.019,-0.105,-0.048,0.08,0.037,-0.006
14.6,-0.011,-0.019,-0.105,-0.22,0.08,-0.113,-0.048
14.667,-1.148,-1.242,-0.234,-3.287,-0.456,-2.623,-2.129
14.733,-4.709,-5.532,-3.516,-7.17,-3.845,-6.269,-5.583
14.8,-8.119,-8.986,-7.162,-9.272,-7.32,-8.972,-8.457
14.867,-10.608,-10.959,-10.037,-10.924,-9.294,-10.795,-10.452
14.933,-12.066,-11.173,-12.053,-10.752,-10.902,-11.353,-11.053
15,-12.216,-10.959,-12.632,-10.645,-11.203,-11.31,-10.988
15.067,-12.281,-10.938,-12.546,-10.645,-11.203,-11.267,-11.01
15.133,-12.195,-10.916,-12.503,-10.602,-11.117,-11.16,-10.988
15.2,-12.173,-10.916,-12.482,-10.559,-11.01,-11.181,-10.859
15.267,-12.173,-10.959,-12.525,-10.581,-10.988,-11.16,-10.859
15.333,-12.173,-10.98,-12.568,-10.538,-10.988,-11.16,-10.817
15.4,-12.109,-10.916,-12.525,-10.473,-10.967,-11.16,-10.817
15.467,-12.109,-10.916,-12.482,-10.473,-10.902,-11.138,-10.688
15.533,-12.109,-10.916,-12.482,-10.473,-10.859,-11.095,-10.666
15.6,-12.023,-10.916,-12.546,-10.473,-10.817,-11.095,-10.709
15.667,-12.002,-10.916,-12.546,-10.473,-10.795,-11.138,-10.688
15.733,-12.002,-10.916,-12.525,-10.473,-10.752,-11.053,-10.645
15.8,-12.002,-10.852,-12.482,-10.409,-10.666,-11.074,-10.645
15.867,-12.002,-10.83,-12.503,-10.409,-10.688,-11.01,-10.623
15.933,-12.002,-10.83,-12.568,-10.43,-10.623,-11.01,-10.538
16,-11.98,-10.809,-12.546,-10.452,-10.581,-11.01,-10.452
16.067,-11.916,-10.744,-12.611,-10.452,-10.559,-11.01,-10.345
16.133,-11.938,-10.744,-12.611,-10.345,-10.495,-11.031,-10.216
16.2,-11.959,-10.744,-12.632,-10.345,-10.473,-11.074,-9.98
16.267,-11.83,-10.744,-12.654,-10.302,-10.43,-11.01,-9.615
16.333,-11.852,-10.744,-12.696,-10.302,-10.302,-11.01,-9.229
16.4,-11.852,-10.723,-12.675,-10.323,-10.237,-10.988,-9.122
16.467,-11.83,-10.68,-12.761,-10.323,-10.194,-10.988,-9.122
16.533,-11.83,-10.659,-12.804,-10.302,-10.13,-10.988,-9.143
16.6,-11.83,-10.68,-12.868,-10.302,-9.959,-10.988,-9.143
16.667,-11.787,-10.659,-12.975,-10.302,-9.808,-10.967,-9.122
16.733,-11.766,-10.616,-13.147,-10.302,-9.401,-10.988,-9.122
16.8,-11.809,-10.594,-13.147,-10.259,-9.165,-10.924,-9.122
16.867,-11.809,-10.573,-13.147,-10.237,-9.143,-10.902,-9.122
16.933,-11.787,-10.573,-13.104,-10.28,-9.143,-10.859,-9.101
17,-11.744,-10.573,-13.104,-10.28,-9.208,-10.838,-9.101
17.067,-11.744,-10.551,-13.125,-10.302,-9.186,-10.859,-9.101
17.133,-11.723,-10.509,-13.125,-10.216,-9.143,-10.902,-9.122
17.2,-11.68,-10.53,-13.083,-10.194,-9.143,-10.902,-9.101
17.267,-11.68,-10.573,-13.04,-10.173,-9.165,-10.859,-9.101
17.333,-11.68,-10.509,-13.018,-10.152,-9.208,-10.817,-9.101
17.4,-11.68,-10.466,-12.975,-10.152,-9.165,-10.838,-9.101
17.467,-11.659,-10.487,-12.975,-10.216,-9.143,-10.817,-9.101
17.533,-11.659,-10.466,-12.975,-10.173,-9.122,-10.817,-9.101
17.6,-11.637,-10.423,-12.975,-10.152,-9.165,-10.817,-9.101
17.667,-11.659,-10.423,-12.975,-10.13,-9.208,-10.817,-9.101
17.733,-11.573,-10.444,-12.975,-10.13,-9.165,-10.795,-9.101
17.8,-11.53,-10.401,-12.954,-10.13,-9.143,-10.774,-9.101
17.867,-11.509,-10.401,-12.89,-10.087,-9.143,-10.709,-9.143
17.933,-11.551,-10.38,-12.911,-9.98,-9.186,-10.666,-9.122
18,-11.594,-10.315,-12.932,-9.98,-9.186,-10.666,-9.101
18.067,-11.551,-10.315,-12.868,-10.044,-9.165,-10.731,-9.058
18.133,-11.509,-10.315,-12.847,-10.044,-9.143,-10.731,-9.058
18.2,-11.487,-10.273,-12.868,-10.001,-9.165,-10.709,-9.079
18.267,-11.487,-10.251,-12.868,-9.98,-9.208,-10.666,-9.058
18.333,-11.487,-10.251,-12.825,-9.98,-9.186,-10.645,-9.036
18.4,-11.466,-10.251,-12.825,-10.001,-9.143,-10.666,-9.079
18.467,-11.337,-10.23,-12.804,-9.959,-9.143,-10.666,-9.079
18.533,-11.358,-10.208,-12.804,-9.959,-9.143,-10.666,-9.101
18.6,-11.444,-10.187,-12.804,-9.959,-9.101,-10.688,-9.015
18.667,-11.444,-10.165,-12.782,-9.959,-9.101,-10.666,-9.101
18.733,-11.444,-10.208,-12.782,-9.916,-9.101,-10.688,-9.101
18.8,-11.487,-10.187,-12.739,-9.851,-9.122,-10.645,-9.101
18.867,-11.466,-10.187,-12.718,-9.83,-9.101,-10.645,-9.101
18.933,-11.401,-10.144,-12.696,-9.808,-9.101,-10.645,-9.101
19,-11.423,-10.165,-12.654,-9.851,-9.101,-10.645,-9.079
19.067,-11.466,-10.165,-12.675,-9.894,-9.101,-10.645,-9.101
19.133,-11.466,-10.165,-12.718,-9.916,-9.122,-10.645,-9.101
19.2,-11.358,-10.208,-12.675,-9.894,-9.122,-10.645,-9.101
19.267,-11.315,-10.23,-12.632,-9.851,-9.101,-10.645,-9.101
19.333,-11.315,-10.122,-12.632,-9.873,-9.101,-10.623,-9.101
19.4,-11.315,-10.08,-12.632,-9.873,-9.101,-10.623,-9.101
19.467,-11.315,-10.058,-12.632,-9.894,-9.101,-10.602,-9.101
19.533,-11.294,-10.058,-12.568,-9.873,-9.122,-10.623,-9.101
19.6,-11.251,-10.058,-12.503,-9.83,-9.101,-10.645,-9.101
19.667,-11.273,-10.015,-12.482,-9.851,-9.101,-10.559,-9.101
19.733,-11.294,-9.994,-12.525,-9.873,-9.101,-10.559,-9.101
19.8,-11.315,-10.037,-12.568,-9.808,-9.101,-10.495,-9.101
19.867,-11.208,-10.058,-12.525,-9.787,-9.101,-10.473,-9.101
19.933,-11.165,-9.929,-12.503,-9.787,-9.101,-10.473,-9.101
20,-11.144,-9.908,-12.482,-9.765,-9.101,-10.473,-9.101
20.02,-11.144,-9.886,-12.525,-9.787,-9.101,-10.473,-9.101
20.087,-11.144,-9.886,-12.503,-9.765,-9.122,-10.473,-9.101
20.153,-11.144,-9.886,-12.589,-9.787,-9.122,-10.473,-9.101
20.22,-11.122,-9.844,-12.525,-9.744,-9.122,-10.43,-9.101
20.287,-11.122,-9.801,-12.461,-9.701,-9.122,-10.409,-9.079
20.353,-11.144,-9.822,-12.461,-9.68,-9.122,-10.409,-9.079
20.42,-11.144,-9.801,-12.461,-9.615,-9.101,-10.452,-9.101
20.487,-11.08,-9.736,-12.461,-9.615,-9.101,-10.473,-9.101
20.553,-11.037,-9.758,-12.461,-9.615,-9.101,-10.43,-9.101
20.62,-10.994,-9.715,-12.439,-9.615,-9.079,-10.388,-9.079
20.687,-10.994,-9.736,-12.396,-9.615,-9.079,-10.388,-9.058
20.753,-11.015,-9.736,-12.396,-9.615,-9.079,-10.388,-9.101
20.82,-10.994,-9.715,-12.418,-9.615,-9.079,-10.302,-9.079
20.887,-11.015,-9.715,-12.375,-9.551,-9.058,-10.302,-9.079
20.953,-10.994,-9.672,-12.31,-9.53,-8.993,-10.302,-9.079
21.02,-10.972,-9.608,-12.289,-9.572,-9.058,-10.302,-9.058
21.087,-10.972,-9.565,-12.289,-9.53,-9.079,-10.302,-9.058
21.153,-10.972,-9.586,-12.289,-9.465,-9.101,-10.302,-9.079
21.22,-10.972,-9.586,-12.289,-9.465,-9.101,-10.28,-9.101
21.287,-10.865,-9.543,-12.246,-9.444,-9.101,-10.237,-9.079
21.353,-10.822,-9.543,-12.203,-9.444,-9.101,-10.259,-9.036
21.42,-10.865,-9.5,-12.225,-9.444,-9.101,-10.302,-9.058
21.487,-10.908,-9.436,-12.267,-9.444,-9.079,-10.302,-9.079
21.553,-10.865,-9.479,-12.225,-9.444,-9.101,-10.237,-9.101
21.62,-10.822,-9.457,-12.16,-9.444,-9.101,-10.216,-9.058
21.687,-10.801,-9.393,-12.117,-9.401,-9.101,-10.173,-9.015
21.753,-10.822,-9.393,-12.117,-9.315,-9.101,-10.152,-9.058
21.82,-10.801,-9.372,-12.117,-9.336,-9.101,-10.173,-9.079
21.887,-10.801,-9.372,-12.117,-9.379,-9.101,-10.216,-9.101
21.953,-10.693,-9.372,-12.053,-9.336,-9.101,-10.216,-9.036
22.02,-10.672,-9.372,-12.031,-9.315,-9.101,-10.173,-9.015
22.087,-10.736,-9.372,-12.096,-9.272,-9.101,-10.152,-9.058
22.153,-10.715,-9.307,-12.096,-9.272,-9.101,-10.13,-9.101
22.22,-10.672,-9.264,-12.01,-9.251,-9.101,-10.13,-9.079
22.287,-10.651,-9.2,-12.031,-9.186,-9.101,-10.13,-9.036
22.353,-10.651,-9.2,-12.031,-9.122,-9.101,-10.13,-9.036
22.42,-10.651,-9.2,-11.989,-9.143,-9.101,-10.13,-9.058
22.487,-10.672,-9.136,-11.967,-9.186,-9.101,-10.087,-9.101
22.553,-10.672,-9.093,-11.946,-9.186,-9.079,-10.066,-9.079
22.62,-10.629,-9.028,-11.946,-9.101,-9.079,-10.023,-9.015
22.687,-10.629,-9.028,-11.946,-9.101,-9.101,-9.98,-9.036
22.753,-10.629,-9.028,-11.946,-9.079,-9.101,-9.98,-9.079
22.82,-10.629,-8.943,-11.796,-9.058,-9.101,-10.044,-9.101
22.887,-10.629,-8.9,-11.86,-9.079,-9.079,-10.044,-9.079
22.953,-10.629,-8.878,-11.881,-9.101,-9.101,-9.959,-9.015
23.02,-10.565,-8.878,-11.838,-9.079,-9.079,-9.959,-9.036
23.087,-10.543,-8.792,-11.817,-9.079,-9.101,-9.959,-9.079
23.153,-10.479,-8.707,-11.774,-9.015,-9.101,-9.959,-9.079
23.22,-10.457,-8.685,-11.774,-8.972,-9.101,-9.959,-9.015
23.287,-10.457,-8.685,-11.774,-8.929,-9.079,-9.873,-8.993
23.353,-10.457,-8.685,-11.753,-8.929,-9.079,-9.808,-9.015
23.42,-10.457,-8.685,-11.667,-8.907,-9.101,-9.851,-9.058
23.487,-10.436,-8.664,-11.624,-8.843,-9.101,-9.937,-9.036
23.553,-10.457,-8.685,-11.71,-8.822,-9.079,-9.894,-9.015
23.62,-10.436,-8.685,-11.753,-8.757,-9.079,-9.83,-8.95
23.687,-10.372,-8.621,-11.753,-8.757,-9.079,-9.937,-8.95
23.753,-10.329,-8.642,-11.774,-8.757,-9.079,-9.916,-8.972
23.82,-10.286,-8.664,-11.753,-8.65,-9.079,-9.851,-8.993
23.887,-10.286,-8.599,-11.667,-8.65,-9.101,-9.873,-8.95
23.953,-10.307,-8.557,-11.624,-8.607,-9.058,-9.894,-8.95
24.02,-10.286,-8.535,-11.602,-8.607,-9.058,-9.808,-8.929
24.087,-10.243,-8.599,-11.602,-8.65,-9.079,-9.808,-8.929
24.153,-10.286,-8.599,-11.581,-8.672,-9.101,-9.808,-8.929
24.22,-10.243,-8.578,-11.538,-8.65,-9.101,-9.851,-8.929
24.287,-10.2,-8.535,-11.538,-8.607,-9.058,-9.787,-8.929
24.353,-10.222,-8.557,-11.56,-8.586,-9.036,-9.787,-8.929
24.42,-10.179,-8.599,-11.431,-8.629,-9.079,-9.765,-8.929
24.487,-10.157,-8.599,-11.431,-8.629,-9.101,-9.744,-8.929
24.553,-10.114,-8.557,-11.431,-8.607,-9.079,-9.744,-8.929
24.62,-10.114,-8.535,-11.431,-8.586,-9.015,-9.787,-8.929
24.687,-10.071,-8.557,-11.409,-8.586,-9.036,-9.744,-8.929
24.753,-10.007,-8.621,-11.431,-8.586,-9.079,-9.615,-8.929
24.82,-9.964,-8.599,-11.367,-8.586,-9.101,-9.615,-8.929
24.887,-9.964,-8.557,-11.281,-8.586,-9.079,-9.615,-8.929
24.953,-10.007,-8.535,-11.281,-8.586,-9.015,-9.615,-8.929
25.02,-10.028,-8.578,-11.281,-8.586,-9.036,-9.594,-8.929
25.087,-9.557,-7.484,-11.259,-5.282,-9.079,-7.642,-7.041
25.153,-0.505,0.281,-5.639,-0.027,-3.202,-0.006,-0.027
25.22,0.16,0.066,0.109,0.016,-0.006,0.059,0.016
25.287,0.16,0.066,0.002,-0.006,0.037,-0.006,0.102
25.353,0.096,0.066,0.045,-0.027,-0.006,0.016,-0.006
25.42,0.139,0.045,0.045,0.059,0.016,0.059,0.016
25.487,0.16,0.066,-0.041,0.037,0.145,0.016,0.08
25.553,0.096,0.066,0.002,-0.006,0.037,-0.006,0.037
25.62,-0.011,0.066,0.024,-0.006,-0.006,0.102,-0.006
25.687,0.032,0.066,0.045,0.016,0.08,0.037,0.123
25.753,0.01,0.066,0.045,-0.006,0.059,-0.006,0.123
25.82,0.01,0.002,-0.019,-0.027,-0.006,0.059,-0.006
25.887,0.01,0.024,-0.019,-0.006,0.037,0.08,0.059
25.953,0.01,0.066,0.024,-0.027,0.037,-0.006,0.08
26.02,0.01,0.002,0.045,-0.006,-0.006,0.059,-0.006
26.087,0.01,-0.019,-0.105,0.037,0.059,0.059,0.037
26.153,-0.011,0.024,-0.105,0.016,0.102,-0.006,0.059
26.22,-0.033,0.045,0.002,-0.006,0.016,0.059,0.016
26.287,-0.011,0.024,-0.062,-0.006,0.016,0.145,0.037
26.353,0.032,-0.041,-0.105,-0.006,0.123,-0.006,0.145
26.42,-0.011,-0.019,-0.062,-0.027,0.037,0.016,0.059
26.487,0.01,0.024,-0.084,0.016,0.016,0.123,0.016
26.553,0.01,0.045,-0.105,-0.006,0.08,0.037,0.102
26.62,0.01,0.045,0.024,-0.027,0.037,-0.006,0.059
26.687,0.01,-0.041,-0.019,0.016,-0.006,0.059,-0.006
26.753,0.01,0.002,-0.127,0.059,0.123,0.037,0.037
26.82,-0.011,0.024,-0.084,-0.006,0.037,-0.006,0.037
26.887,-0.011,0.045,0.002,-0.006,-0.006,0.08,-0.006
26.953,0.01,-0.041,-0.084,-0.006,0.037,0.102,0.102
27.02,0.032,-0.041,-0.105,-0.006,0.08,-0.006,0.145
27.087,-0.011,0.002,-0.041,-0.134,-0.006,-0.048,-0.048
27.153,-0.826,-1.285,-0.169,-2.301,-0.477,-1.936,-2.065
27.22,-5.867,-5.875,-3.237,-7.47,-4.081,-7.02,-6.998
27.287,-9.75,-10.38,-8.642,-10.795,-8.607,-9.937,-9.894
27.353,-12.838,-13.061,-11.817,-12.49,-11.524,-12.189,-11.696
27.42,-13.225,-13.04,-13.447,-12.575,-12.382,-12.189,-11.246
27.487,-13.139,-12.975,-12.975,-12.533,-12.404,-12.146,-11.181
27.553,-13.139,-12.975,-12.975,-12.511,-12.361,-12.018,-11.138
27.62,-13.096,-12.911,-12.975,-12.447,-12.254,-12.018,-11.031
27.687,-13.053,-12.868,-12.975,-12.447,-12.211,-12.018,-11.01
27.753,-13.032,-12.825,-12.975,-12.404,-12.232,-12.018,-10.945
27.82,-13.032,-12.825,-12.975,-12.382,-12.232,-12.018,-10.881
27.887,-13.053,-12.825,-12.975,-12.382,-12.232,-11.996,-10.838
27.953,-13.01,-12.89,-12.975,-12.382,-12.254,-11.953,-10.688
28.02,-12.967,-12.868,-12.997,-12.361,-12.297,-11.953,-10.645
28.087,-13.01,-12.804,-12.975,-12.361,-12.275,-11.975,-10.581
28.153,-13.032,-12.804,-12.975,-12.361,-12.254,-11.868,-10.323
28.22,-13.032,-12.804,-13.04,-12.361,-12.232,-11.846,-9.765
28.287,-13.01,-12.782,-13.104,-12.318,-12.189,-11.846,-9.615
28.353,-13.032,-12.696,-13.104,-12.254,-12.189,-11.846,-9.594
28.42,-13.01,-12.675,-13.061,-12.232,-12.189,-11.846,-9.53
28.487,-12.946,-12.654,-13.125,-12.211,-12.189,-11.868,-9.572
28.553,-12.946,-12.696,-13.147,-12.254,-12.189,-11.868,-9.615
28.62,-12.881,-12.739,-13.19,-12.297,-12.189,-11.825,-9.615
28.687,-12.86,-12.675,-13.254,-12.254,-12.189,-11.803,-9.572
28.753,-12.86,-12.632,-13.319,-12.211,-12.146,-11.825,-9.551
28.82,-12.86,-12.632,-13.34,-12.189,-12.125,-11.846,-9.572
28.887,-12.86,-12.654,-13.49,-12.211,-12.146,-11.803,-9.615
28.953,-12.838,-12.632,-13.533,-12.232,-12.189,-11.803,-9.594
29.02,-12.86,-12.611,-13.576,-12.297,-12.189,-11.846,-9.53
29.087,-12.817,-12.503,-13.576,-12.318,-12.104,-11.803,-9.551
29.153,-12.774,-12.503,-13.533,-12.34,-12.061,-11.717,-9.594
29.22,-12.796,-12.546,-13.533,-12.275,-12.018,-11.782,-9.615
29.287,-12.753,-12.546,-13.533,-12.254,-12.018,-11.76,-9.572
29.353,-12.688,-12.503,-13.554,-12.189,-12.018,-11.739,-9.53
29.42,-12.688,-12.482,-13.512,-12.189,-12.018,-11.696,-9.53
29.487,-12.688,-12.482,-13.49,-12.189,-12.018,-11.717,-9.53
29.553,-12.688,-12.482,-13.49,-12.189,-12.018,-11.739,-9.551
29.62,-12.688,-12.546,-13.49,-12.189,-12.018,-11.739,-9.572
29.687,-12.688,-12.589,-13.447,-12.189,-11.996,-11.696,-9.508
29.753,-12.645,-12.568,-13.383,-12.189,-11.932,-11.675,-9.444
29.82,-12.624,-12.482,-13.34,-12.146,-11.953,-11.675,-9.444
29.887,-12.645,-12.461,-13.34,-12.104,-11.996,-11.675,-9.465
29.953,-12.688,-12.461,-13.383,-12.125,-12.018,-11.675,-9.487
30.02,-12.645,-12.461,-13.383,-12.168,-11.996,-11.675,-9.444
30.087,-12.603,-12.461,-13.34,-12.189,-11.932,-11.61,-9.444
30.153,-12.56,-12.418,-13.34,-12.104,-11.889,-11.589,-9.465
30.22,-12.56,-12.375,-13.319,-12.104,-11.846,-11.61,-9.487
30.287,-12.538,-12.418,-13.34,-12.061,-11.868,-11.567,-9.465
30.353,-12.538,-12.461,-13.297,-12.061,-11.868,-11.546,-9.444
30.42,-12.517,-12.439,-13.297,-12.018,-11.846,-11.524,-9.444
30.487,-12.517,-12.332,-13.297,-12.018,-11.846,-11.589,-9.444
30.553,-12.517,-12.289,-13.319,-12.018,-11.846,-11.61,-9.465
30.62,-12.517,-12.289,-13.319,-12.018,-11.846,-11.546,-9.465
30.687,-12.495,-12.289,-13.297,-12.018,-11.782,-11.524,-9.444
30.753,-12.474,-12.289,-13.319,-12.018,-11.782,-11.503,-9.444
30.82,-12.474,-12.289,-13.319,-12.018,-11.803,-11.503,-9.465
30.887,-12.409,-12.246,-13.319,-11.996,-11.846,-11.503,-9.487
30.953,-12.367,-12.267,-13.254,-11.975,-11.846,-11.503,-9.465
31.02,-12.367,-12.289,-13.233,-12.018,-11.825,-11.46,-9.444
31.087,-12.452,-12.267,-13.19,-11.975,-11.825,-11.439,-9.444
31.153,-12.431,-12.203,-13.168,-11.953,-11.739,-11.439,-9.465
31.22,-12.367,-12.139,-13.147,-11.953,-11.696,-11.439,-9.487
31.287,-12.345,-12.117,-13.147,-11.996,-11.717,-11.417,-9.487
31.353,-12.345,-12.139,-13.147,-11.953,-11.782,-11.396,-9.444
31.42,-12.345,-12.182,-13.147,-11.889,-11.76,-11.417,-9.465
31.487,-12.302,-12.139,-13.147,-11.868,-11.717,-11.439,-9.465
31.553,-12.238,-12.117,-13.125,-11.846,-11.696,-11.439,-9.465
31.62,-12.195,-12.096,-13.061,-11.846,-11.696,-11.482,-9.465
31.687,-12.216,-12.117,-13.083,-11.868,-11.739,-11.503,-9.444
31.753,-12.281,-12.117,-12.997,-11.868,-11.675,-11.503,-9.465
31.82,-12.259,-12.074,-12.975,-11.846,-11.675,-11.46,-9.465
31.887,-12.216,-12.074,-12.975,-11.846,-11.675,-11.417,-9.465
31.953,-12.195,-12.031,-12.975,-11.846,-11.675,-11.46,-9.465
32.02,-12.238,-11.967,-12.975,-11.825,-11.675,-11.482,-9.487
32.087,-12.259,-11.967,-12.954,-11.803,-11.675,-11.46,-9.465
32.153,-12.281,-12.031,-12.975,-11.782,-11.546,-11.353,-9.465
32.22,-12.281,-12.031,-12.975,-11.782,-11.524,-11.331,-9.465
32.287,-12.173,-11.989,-12.911,-11.846,-11.589,-11.331,-9.487
32.353,-12.173,-11.946,-12.89,-11.846,-11.589,-11.331,-9.444
32.42,-12.173,-11.946,-12.825,-11.846,-11.567,-11.331,-9.465
32.487,-12.173,-11.946,-12.825,-11.803,-11.524,-11.331,-9.444
32.553,-12.173,-11.946,-12.847,-11.76,-11.524,-11.331,-9.444
32.62,-12.173,-11.86,-12.89,-11.717,-11.546,-11.31,-9.444
32.687,-12.109,-11.796,-12.847,-11.696,-11.567,-11.331,-9.422
32.753,-12.088,-11.838,-12.804,-11.717,-11.503,-11.31,-9.465
32.82,-12.131,-11.881,-12.804,-11.782,-11.503,-11.246,-9.444
32.887,-12.045,-11.838,-12.804,-11.739,-11.503,-11.267,-9.444
32.953,-12.002,-11.796,-12.761,-11.717,-11.524,-11.31,-9.444
33.02,-12.002,-11.774,-12.696,-11.675,-11.503,-11.288,-9.422
33.087,-12.002,-11.774,-12.654,-11.675,-11.503,-11.203,-9.444
33.153,-12.002,-11.774,-12.675,-11.675,-11.439,-11.16,-9.444
33.22,-12.002,-11.774,-12.718,-11.675,-11.374,-11.16,-9.444
33.287,-11.98,-11.731,-12.654,-11.675,-11.396,-11.16,-9.422
33.353,-11.916,-11.667,-12.632,-11.675,-11.439,-11.16,-9.422
33.42,-11.938,-11.731,-12.632,-11.675,-11.417,-11.16,-9.444
33.487,-11.98,-11.753,-12.611,-11.632,-11.374,-11.138,-9.444
33.553,-11.938,-11.753,-12.568,-11.567,-11.482,-11.138,-9.444
33.62,-11.83,-11.774,-12.546,-11.524,-11.503,-11.138,-9.401
33.687,-11.83,-11.753,-12.503,-11.524,-11.46,-11.16,-9.444
33.753,-11.83,-11.71,-12.482,-11.61,-11.46,-11.095,-9.444
33.82,-11.83,-11.688,-12.503,-11.589,-11.503,-11.074,-9.444
33.887,-11.83,-11.624,-12.525,-11.546,-11.482,-11.053,-9.444
33.953,-11.787,-11.602,-12.546,-11.524,-11.417,-11.053,-9.444
34.02,-11.766,-11.602,-12.546,-11.503,-11.417,-11.01,-9.444
34.087,-11.809,-11.602,-12.461,-11.524,-11.353,-11.031,-9.444
34.153,-11.83,-11.602,-12.461,-11.503,-11.331,-10.988,-9.444
34.22,-11.702,-11.581,-12.461,-11.503,-11.331,-11.01,-9.444
34.287,-11.744,-11.602,-12.439,-11.503,-11.331,-10.988,-9.444
34.353,-11.744,-11.56,-12.439,-11.503,-11.331,-11.01,-9.444
34.42,-11.723,-11.474,-12.461,-11.503,-11.331,-10.988,-9.444
34.487,-11.68,-11.431,-12.375,-11.417,-11.331,-10.988,-9.444
34.553,-11.659,-11.431,-12.289,-11.396,-11.288,-10.988,-9.444
34.62,-11.659,-11.431,-12.289,-11.353,-11.246,-10.988,-9.444
34.687,-11.659,-11.388,-12.289,-11.439,-11.267,-10.988,-9.444
34.753,-11.616,-11.367,-12.267,-11.46,-11.31,-10.945,-9.444
34.82,-11.53,-11.388,-12.225,-11.503,-11.331,-10.881,-9.422
34.887,-11.53,-11.388,-12.182,-11.482,-11.246,-10.859,-9.422
34.953,-11.573,-11.345,-12.117,-11.503,-11.203,-10.838,-9.444
35.02,-11.573,-11.324,-12.117,-11.439,-11.16,-10.859,-9.422
35.087,-11.509,-11.302,-12.117,-11.417,-11.16,-10.924,-9.444
35.153,-11.487,-11.281,-12.053,-11.46,-11.16,-10.881,-9.444
35.22,-11.487,-11.281,-12.096,-11.503,-11.16,-10.838,-9.444
35.287,-11.487,-11.259,-12.031,-11.482,-11.16,-10.817,-9.422
35.353,-11.444,-11.259,-11.967,-11.396,-11.16,-10.817,-9.379
35.42,-11.38,-11.173,-11.967,-11.353,-11.16,-10.817,-9.379
35.487,-11.38,-11.131,-11.989,-11.331,-11.138,-10.731,-9.422
35.553,-11.423,-11.109,-11.946,-11.331,-11.095,-10.666,-9.401
35.62,-11.444,-11.109,-11.903,-11.331,-11.095,-10.666,-9.336
35.687,-11.444,-11.109,-11.796,-11.331,-11.117,-10.731,-9.315
35.753,-11.466,-11.088,-11.817,-11.331,-11.053,-10.731,-9.315
35.82,-11.487,-10.98,-11.774,-11.331,-11.053,-10.666,-9.379
35.887,-11.337,-10.938,-11.753,-11.331,-11.031,-10.645,-9.379
35.953,-11.315,-10.98,-11.645,-11.288,-11.01,-10.645,-9.315
36.02,-11.315,-10.959,-11.667,-11.246,-11.031,-10.666,-9.294
36.087,-11.315,-10.938,-11.731,-11.267,-11.01,-10.709,-9.336
36.153,-11.294,-10.959,-11.667,-11.31,-11.01,-10.645,-9.379
36.22,-11.251,-10.916,-11.602,-11.224,-11.031,-10.645,-9.336
36.287,-11.23,-10.916,-11.602,-11.181,-10.988,-10.645,-9.294
36.353,-11.165,-10.916,-11.56,-11.16,-10.988,-10.645,-9.315
36.42,-11.144,-10.873,-11.409,-11.16,-10.988,-10.623,-9.358
36.487,-11.144,-10.895,-11.367,-11.16,-10.924,-10.623,-9.358
36.553,-11.101,-10.787,-11.388,-11.16,-10.924,-10.645,-9.336
36.62,-11.08,-10.744,-11.431,-11.16,-10.881,-10.581,-9.294
36.687,-11.101,-10.702,-11.431,-11.16,-10.838,-10.495,-9.315
36.753,-11.037,-10.68,-11.367,-11.138,-10.838,-10.473,-9.358
36.82,-11.015,-10.573,-11.367,-11.16,-10.838,-10.473,-9.358
36.887,-11.037,-10.594,-11.409,-11.16,-10.817,-10.473,-9.315
36.953,-11.015,-10.53,-11.431,-11.095,-10.817,-10.452,-9.294
37.02,-10.972,-10.487,-11.431,-11.031,-10.817,-10.409,-9.315
37.087,-10.972,-10.423,-11.367,-11.031,-10.817,-10.43,-9.358
37.153,-10.908,-10.401,-11.367,-11.031,-10.752,-10.43,-9.358
37.22,-10.908,-10.38,-11.409,-11.031,-10.731,-10.323,-9.315
37.287,-10.865,-10.401,-11.409,-11.031,-10.688,-10.302,-9.294
37.353,-10.822,-10.401,-11.367,-10.988,-10.666,-10.302,-9.315
37.42,-10.801,-10.401,-11.324,-11.01,-10.666,-10.302,-9.379
37.487,-10.736,-10.401,-11.324,-11.01,-10.645,-10.302,-9.336
37.553,-10.715,-10.401,-11.345,-10.988,-10.709,-10.302,-9.315
37.62,-10.672,-10.401,-11.367,-10.988,-10.688,-10.216,-9.294
37.687,-10.651,-10.358,-11.324,-10.066,-10.666,-9.615,-8.264
37.753,-3.25,-2.357,-6.605,-0.52,-6.462,-2.022,-1.271
37.82,0.118,0.002,0.217,-0.006,0.016,0.016,0.059
37.887,0.096,0.066,0.045,-0.006,-0.006,-0.006,0.102
37.953,0.139,0.024,0.066,-0.006,-0.006,-0.006,-0.006
38.02,0.16,0.024,0.024,-0.006,0.102,0.08,0.037
38.087,0.118,0.131,-0.019,0.016,0.037,0.059,0.08
38.153,0.075,0.109,0.024,-0.027,-0.006,-0.006,0.016
38.22,0.032,0.088,0.066,-0.006,0.059,0.037,0.08
38.287,0.01,0.002,0.024,0.059,0.102,0.037,0.123
38.353,0.01,0.045,-0.019,-0.006,-0.006,-0.006,0.037
38.42,0.01,0.045,0.024,-0.027,0.016,0.059,0.016
38.487,-0.011,0.024,0.024,-0.006,0.08,0.102,0.123
38.553,-0.011,0.045,0.045,-0.006,-0.006,0.016,0.059
38.62,0.01,0.066,0.002,-0.006,0.059,0.016,0.016
38.687,-0.011,0.024,-0.105,0.016,0.123,0.08,0.059
38.753,-0.011,0.045,-0.105,-0.006,-0.006,0.016,0.059
38.82,0.032,0.045,0.002,-0.006,-0.006,-0.006,-0.006
38.887,0.01,-0.019,-0.062,0.016,0.102,0.08,0.145
38.953,0.01,-0.019,-0.105,0.037,0.016,0.016,0.102
39.02,0.01,0.024,-0.062,-0.006,-0.006,-0.006,-0.006
39.087,0.01,0.045,-0.041,-0.006,0.037,0.102,0.08
39.153,0.01,0.024,-0.105,-0.006,0.037,0.08,0.123
39.22,0.01,-0.019,-0.041,-0.006,-0.006,-0.006,0.016
39.287,0.01,0.002,-0.041,-0.006,0.08,0.059,0.059
39.353,-0.033,0.024,-0.105,-0.006,0.08,0.102,0.059
39.42,-0.011,0.045,-0.084,-0.006,-0.006,-0.006,0.037
39.487,0.032,0.024,0.045,-0.027,0.059,0.016,0.059
39.553,0.01,-0.041,-0.062,0.059,0.102,0.059,0.145
39.62,0.01,0.002,-0.105,0.037,-0.006,-0.006,0.059
39.687,0.01,0.045,-0.019,-0.027,0.037,-0.006,-0.027
39.753,-0.397,-0.684,-0.127,-1.7,-0.113,-1.185,-1.335
39.82,-5.502,-6.197,-2.743,-6.612,-3.716,-6.655,-6.977
39.887,-11.144,-10.916,-9.114,-11.053,-8.607,-11.01,-11.138
39.953,-14.297,-14.563,-13.469,-13.798,-12.232,-13.391,-13.476
40.02,-16.935,-17.115,-16.021,-15.6,-14.592,-15.428,-15.45
40.03,-18.373,-18.123,-18.123,-16.565,-16.072,-16.544,-15.879
40.097,-18.523,-18.316,-18.617,-16.351,-16.243,-16.458,-15.385
40.163,-18.716,-17.63,-18.467,-16.072,-15.793,-15.986,-15.192
40.23,-18.716,-17.287,-18.102,-15.965,-15.621,-15.364,-14.978
40.297,-18.33,-17.566,-17.501,-15.922,-15.493,-15.514,-15.192
40.363,-18.029,-17.823,-17.394,-15.621,-15.772,-15.75,-15.428
40.43,-17.922,-17.416,-17.887,-14.999,-15.686,-15.686,-15.128
40.497,-18.201,-17.501,-18.274,-15.192,-15.471,-15.471,-15.042
40.563,-18.437,-17.609,-18.445,-15.45,-15.6,-15.621,-15.257
40.63,-18.115,-17.48,-18.359,-15.729,-15.643,-15.857,-15.514
40.697,-17.922,-17.694,-18.08,-16.029,-15.343,-15.664,-15.493
40.763,-18.029,-17.651,-18.209,-16.115,-15.064,-14.892,-15.321
40.83,-18.094,-17.244,-18.745,-15.836,-15.407,-14.914,-15.536
40.897,-17.815,-17.437,-19.11,-16.029,-15.643,-15.107,-15.557
40.963,-18.115,-17.63,-19.153,-16.072,-15.621,-15.428,-15.278
41.03,-18.008,-17.523,-18.831,-15.772,-15.493,-15.686,-15.321
41.097,-17.257,-17.072,-19.153,-15.943,-15.493,-15.686,-15.471
41.163,-17.3,-17.373,-19.368,-16.093,-15.686,-15.471,-15.557
41.23,-17.643,-17.587,-19.153,-15.621,-15.278,-15.364,-15.343
41.297,-17.793,-17.416,-18.981,-15.814,-15.042,-15.6,-15.278
41.363,-17.879,-17.18,-18.724,-16.008,-15.364,-15.75,-15.536
41.43,-17.708,-17.33,-18.874,-15.922,-15.579,-15.536,-15.214
41.497,-17.558,-17.437,-19.26,-15.879,-15.45,-15.579,-15.15
41.563,-17.729,-17.351,-19.217,-15.171,-15.407,-15.514,-15.471
41.63,-17.858,-16.944,-19.024,-15.214,-15.364,-15.278,-15.407
41.697,-17.751,-17.158,-19.003,-15.536,-15.536,-15.385,-15.214
41.763,-17.043,-17.458,-19.132,-15.772,-15.45,-15.643,-15.364
41.83,-17.322,-17.33,-18.831,-15.922,-15.471,-15.407,-15.3
41.897,-17.622,-17.201,-18.617,-15.836,-14.978,-15.428,-14.313
41.963,-17.815,-17.051,-18.96,-15.707,-15.085,-15.579,-12.79
42.03,-17.45,-17.115,-19.132,-15.729,-15.364,-15.514,-11.717
42.097,-17.236,-17.373,-19.003,-15.9,-15.557,-15.45,-12.361
42.163,-17.515,-17.201,-18.831,-15.729,-15.45,-15.45,-15.107
42.23,-17.751,-16.987,-18.788,-15.729,-15.321,-15.064,-15.471
42.297,-17.708,-17.008,-18.681,-15.621,-15.45,-14.056,-15.064
42.363,-17.407,-17.287,-18.917,-15.814,-15.085,-13.627,-15.107
42.43,-17.536,-17.244,-18.96,-15.729,-14.742,-13.219,-15.385
42.497,-17.729,-17.029,-18.681,-15.707,-15.107,-13.369,-15.343
42.563,-17.493,-17.029,-18.788,-15.857,-15.407,-13.562,-15.15
42.63,-17.364,-17.18,-19.024,-15.364,-15.493,-13.112,-15.364
42.697,-17.6,-17.072,-18.681,-14.184,-14.485,-12.704,-15.171
42.763,-17.643,-17.201,-18.66,-13.755,-14.077,-12.018,-13.777
42.83,-16.807,-17.18,-18.981,-13.648,-13.734,-11.439,-11.396
42.897,-16.764,-16.429,-18.145,-13.884,-13.155,-13.498,-10.752
42.963,-17.107,-16.686,-17.759,-13.82,-13.219,-15.536,-14.034
43.03,-17.343,-17.029,-17.887,-13.455,-13.391,-15.407,-15.707
43.097,-17.622,-17.244,-18.231,-13.605,-13.605,-15.3,-15.471
43.163,-17.579,-16.815,-18.595,-13.862,-13.047,-14.935,-14.956
43.23,-17.558,-16.922,-18.917,-13.605,-12.447,-14.377,-14.892
43.297,-17.257,-17.222,-18.853,-13.562,-11.567,-14.42,-15.085
43.363,-15.992,-17.115,-18.745,-13.734,-13.82,-14.699,-15.364
43.43,-14.426,-16.922,-18.724,-13.798,-14.935,-15.042,-15.15
43.497,-12.817,-17.029,-18.874,-13.498,-14.098,-15.257,-14.828
43.563,-13.117,-17.244,-18.66,-13.669,-13.777,-15.493,-13.455
43.63,-16.7,-17.072,-18.424,-13.734,-13.219,-15.407,-13.047
43.697,-17.429,-16.836,-18.745,-13.541,-13.198,-14.485,-12.983
43.763,-17.364,-16.922,-18.896,-13.691,-13.391,-13.112,-12.726
43.83,-17.171,-17.051,-18.595,-13.798,-13.455,-12.661,-11.975
43.897,-16.785,-16.107,-18.488,-13.562,-13.155,-10.43,-11.246
43.963,-16.785,-14.005,-18.745,-13.712,-13.412,-8.95,-13.219
44.03,-17.15,-12.675,-18.831,-13.691,-13.391,-13.069,-15.321
44.097,-17.343,-12.611,-18.531,-13.669,-13.069,-15.192,-15.042
44.163,-17.279,-16.086,-18.488,-13.798,-13.133,-15.922,-15.042
44.23,-16.721,-16.858,-18.853,-13.498,-13.262,-15.428,-15.235
44.297,-16.957,-17.008,-18.552,-13.691,-13.455,-15.042,-15.3
44.363,-17.193,-17.072,-18.638,-13.734,-13.198,-14.12,-15.15
44.43,-17.407,-16.922,-18.638,-13.519,-13.069,-12.704,-15.107
44.497,-17.257,-17.051,-18.574,-13.584,-13.219,-11.482,-15.214
44.563,-17.3,-17.008,-18.724,-13.712,-13.412,-8.865,-15.192
44.63,-17.129,-16.901,-18.703,-13.562,-13.326,-12.49,-14.034
44.697,-17.15,-17.051,-18.252,-13.562,-13.24,-14.871,-13.198
44.763,-17.257,-16.322,-18.531,-13.691,-13.433,-15.321,-13.004
44.83,-17.171,-14.799,-18.874,-13.541,-13.305,-14.098,-11.439
44.897,-17,-14.37,-18.681,-13.541,-13.112,-13.433,-11.653
44.963,-17.021,-13.662,-18.531,-13.669,-13.412,-11.975,-14.592
45.03,-17.3,-12.332,-18.595,-13.605,-13.391,-8.521,-15.471
45.097,-17.086,-14.927,-18.66,-13.519,-13.283,-9.101,-14.699
45.163,-17.107,-16.815,-17.609,-13.648,-13.283,-13.391,-13.648
45.23,-17.214,-16.751,-17.416,-13.627,-13.369,-15.321,-13.734
45.297,-16.871,-17.029,-16.643,-13.541,-13.369,-14.871,-13.026
45.363,-17.043,-17.072,-15.893,-13.712,-13.219,-13.541,-11.589
45.43,-17.236,-16.836,-15.292,-13.605,-13.326,-12.64,-9.615
45.497,-17.064,-16.901,-15.356,-13.498,-13.24,-11.203,-9.058
45.563,-16.657,-16.922,-15.464,-13.627,-13.326,-7.814,-13.24
45.63,-16.914,-16.901,-15.421,-13.648,-13.326,-11.246,-15.385
45.697,-17.129,-17.072,-14.799,-13.476,-13.219,-14.12,-15.385
45.763,-17.171,-16.836,-12.203,-13.584,-13.412,-15.579,-14.999
45.83,-16.313,-16.622,-10.809,-13.648,-13.348,-15.128,-15.171
45.897,-15.884,-16.879,-16.193,-13.498,-13.176,-14.527,-15.192
45.963,-16.228,-16.751,-18.638,-13.519,-13.326,-14.442,-14.463
46.03,-16.635,-15.957,-18.724,-13.669,-13.369,-14.699,-12.983
46.097,-16.914,-16.064,-18.274,-13.476,-13.262,-14.956,-11.717
46.163,-17.129,-16.407,-18.445,-13.498,-13.219,-15.235,-12.082
46.23,-16.957,-16.6,-18.617,-13.627,-13.326,-15.15,-12.039
46.297,-16.871,-16.922,-18.102,-13.541,-13.305,-14.141,-11.117
46.363,-17.129,-16.858,-18.338,-13.519,-13.155,-13.476,-7.771
46.43,-16.871,-16.858,-18.617,-13.476,-13.305,-13.219,-11.567
46.497,-16.785,-16.858,-18.209,-13.498,-13.369,-12.64,-14.141
46.563,-17.086,-16.901,-18.467,-13.605,-13.24,-11.439,-15.536
46.63,-16.978,-16.965,-18.467,-13.562,-13.24,-9.229,-14.914
46.697,-16.571,-16.772,-17.265,-13.476,-13.305,-12.146,-14.377
46.763,-16.893,-16.772,-15.228,-13.455,-13.219,-15.021,-13.541
46.83,-17.129,-16.515,-11.216,-13.541,-13.348,-15.557,-12.769
46.897,-16.957,-16.772,-12.117,-13.562,-13.219,-14.956,-11.632
46.963,-16.721,-16.858,-16.536,-13.433,-13.133,-14.249,-11.803
47.03,-16.914,-16.708,-18.874,-13.519,-12.983,-13.605,-9.916
47.097,-17.086,-16.901,-18.381,-13.541,-12.769,-12.833,-11.717
47.163,-16.421,-16.643,-17.995,-13.498,-12.211,-10.194,-14.806
47.23,-16.099,-16.751,-18.295,-13.433,-11.589,-8.157,-14.914
47.297,-16.335,-16.815,-18.252,-13.562,-11.589,-11.996,-13.627
47.363,-16.7,-15.657,-18.038,-13.476,-8.135,-14.871,-11.696
47.43,-16.957,-15.378,-18.467,-13.519,-10.087,-15.235,-8.243
47.497,-17.064,-14.777,-18.424,-13.476,-13.97,-14.227,-9.101
47.563,-16.871,-14.219,-17.694,-13.433,-15.514,-12.79,-13.348
47.63,-16.935,-14.284,-16.493,-13.391,-15.257,-10.688,-15.235
47.697,-16.785,-14.52,-15.893,-13.455,-14.892,-8.049,-14.635
47.763,-17.021,-14.498,-15.485,-13.519,-14.056,-11.567,-13.82
47.83,-16.442,-14.198,-15.464,-13.519,-14.098,-14.678,-13.97
47.897,-16.142,-13.254,-14.198,-13.455,-14.42,-15.3,-14.163
47.963,-16.464,-13.04,-13.941,-13.476,-14.635,-14.249,-14.42
48.03,-16.828,-11.731,-15.12,-13.412,-14.914,-14.12,-14.678
48.097,-17,-9.136,-14.284,-13.498,-15.15,-14.377,-14.871
48.163,-17.021,-13.941,-10.873,-13.433,-14.828,-14.678,-14.334
48.23,-16.785,-16.6,-14.069,-13.455,-14.656,-14.956,-13.283
48.297,-16.7,-17.115,-18.038,-13.391,-14.935,-14.871,-11.868
48.363,-16.914,-16.836,-18.724,-13.476,-15.171,-14.013,-11.868
48.43,-17.021,-16.536,-18.295,-13.391,-14.635,-12.618,-12.983
48.497,-16.935,-15.764,-17.651,-13.348,-13.884,-11.61,-12.061
48.563,-16.442,-15.828,-18.038,-13.433,-14.141,-11.782,-10.774
48.63,-16.721,-15.893,-18.359,-13.433,-13.712,-11.503,-13.198
48.697,-16.978,-16.214,-18.188,-13.476,-13.412,-11.76,-14.914
48.763,-16.85,-16.493,-16.836,-13.391,-13.069,-9.572,-14.206
48.83,-16.957,-16.751,-16.129,-13.498,-13.133,-12.146,-14.399
48.897,-16.635,-16.858,-14.177,-13.433,-13.283,-14.699,-14.656
48.963,-16.356,-16.751,-14.241,-13.369,-13.283,-15.278,-14.828
49.03,-16.657,-16.622,-13.319,-13.305,-13.133,-14.999,-14.034
49.097,-16.935,-16.772,-17.201,-13.348,-13.004,-14.699,-13.584
49.163,-16.957,-16.6,-18.359,-13.412,-13.047,-13.412,-13.348
49.23,-16.914,-16.579,-18.274,-13.326,-12.854,-11.267,-12.661
49.297,-16.528,-16.772,-18.445,-13.369,-11.46,-11.353,-11.396
49.363,-16.163,-16.815,-17.651,-13.369,-11.31,-14.292,-11.074
49.43,-16.506,-16.579,-17.416,-13.412,-12.168,-13.97,-14.206
49.497,-16.742,-16.665,-17.866,-13.369,-10.473,-13.155,-15.042
49.563,-16.85,-16.686,-18.188,-13.326,-11.524,-11.288,-13.991
49.63,-16.163,-16.558,-18.467,-13.412,-14.527,-9.594,-12.34
49.697,-16.399,-16.772,-17.737,-13.369,-15.235,-12.962,-10.859
49.763,-16.721,-16.579,-15.506,-13.412,-14.978,-15.192,-7.942
49.83,-16.935,-16.665,-13.083,-13.369,-14.377,-15.085,-9.98
49.897,-16.828,-16.386,-14.627,-13.262,-14.077,-14.292,-13.412
49.963,-16.828,-16.536,-17.952,-13.348,-14.399,-13.798,-15.343
50.03,-16.721,-16.729,-18.745,-13.391,-14.699,-14.034,-15.107
50.097,-16.528,-16.558,-18.123,-13.326,-14.678,-14.27,-14.635
50.163,-16.85,-16.686,-16.879,-13.369,-14.034,-14.57,-14.013
50.23,-9.428,-10.573,-14.541,-6.484,-12.404,-6.998,-4.982
50.297,0.396,0.217,-0.663,-0.027,-1.529,-0.006,-0.006
50.363,0.118,0.002,0.045,-0.006,-0.006,-0.006,0.08
50.43,0.16,0.045,0.002,-0.006,-0.006,0.016,0.08
50.497,0.182,0.045,0.002,0.016,0.059,0.08,-0.006
50.563,0.118,0.066,0.002,-0.006,0.016,-0.006,0.08
50.63,0.096,0.045,0.045,-0.006,-0.006,0.016,0.145
50.697,0.139,0.045,0.045,0.059,0.102,0.059,0.037
50.763,0.032,0.002,0.002,0.016,0.08,0.016,0.059