Capture frequency (Hz):
100.0
Time (s):
8.0
Gain:
1.0
Number of iterations:
800
100.00
0.83
100.0
-0.76
100.0
0.18
100.0
0.13
100.0
-0.56
100.0
-0.87
100.0
5.17
100.0
-2.11
100.0
0.99
100.0
5.8
100.0
6.35
100.0
5.88
100.0
2.47
100.0
7.96
100.0
11.5
100.0
12.31
100.0
17.38
100.0
6.32
100.0
8.8
100.0
17.63
100.0
24.05
100.0
30.83
100.0
15.03
100.0
19.26
100.0
28.04
100.0
35.1
100.0
33.87
100.0
31.93
100.0
32.83
100.0
44.73
100.0
39.7
100.0
43.32
100.0
49.5
100.0
57.8
100.0
51.18
100.0
59.07
100.0
63.72
100.0
59.59
100.0
69.15
100.0
73.6
100.0
69.87
100.0
79.7
100.0
86.07
100.0
81.61
100.0
88.71
100.0
91.85
100.0
90.74
100.0
90.94
100.0
102.07
100.0
105.6
100.0
102.0
100.0
118.2
100.0
115.06
100.0
114.5
100.0
111.63
100.0
122.9
100.0
125.29
100.0
123.19
100.0
121.28
100.0
121.56
100.0
128.53
100.0
134.57
100.0
133.4
100.0
132.54
100.0
131.95
100.0
131.46
100.0
131.06
100.0
130.55
100.0
129.98
100.0
129.37
100.0
128.67
100.0
128.04
100.0
127.2
100.0
126.45
100.0
125.73
100.0
125.0
100.0
124.38
100.0
123.84
100.0
123.36
100.0
122.89
100.0
122.45
100.0
122.32
100.0
122.06
100.0
121.73
100.0
121.45
100.0
121.05
100.0
120.59
100.0
120.26
100.0
120.01
100.0
119.67
100.0
119.51
100.0
119.34
100.0
119.28
100.0
119.49
100.0
119.57
100.0
119.77
100.0
119.73
100.0
119.85
100.0
119.69
100.0
119.47
100.0
119.25
100.0
119.04
100.0
118.73
100.0
118.47
100.0
118.34
100.0
118.19
100.0
118.22
100.0
118.27
100.0
118.4
100.0
118.51
100.0
118.6
100.0
118.81
100.0
118.84
100.0
118.74
100.0
118.67
100.0
118.46
100.0
118.11
100.0
117.86
100.0
117.64
100.0
117.5
100.0
117.43
100.0
117.4
100.0
117.55
100.0
117.67
100.0
117.85
100.0
118.02
100.0
118.14
100.0
118.11
100.0
118.12
100.0
117.9
100.0
117.79
100.0
117.46
100.0
117.2
100.0
117.13
100.0
116.95
100.0
116.92
100.0
116.92
100.0
116.95
100.0
117.18
100.0
117.24
100.0
117.54
100.0
117.56
100.0
117.64
100.0
117.64
100.0
117.44
100.0
117.31
100.0
116.98
100.0
116.78
100.0
116.57
100.0
116.49
100.0
116.47
100.0
116.47
100.0
116.57
100.0
116.77
100.0
116.89
100.0
117.04
100.0
117.21
100.0
117.21
100.0
117.16
100.0
116.99
100.0
116.84
100.0
116.58
100.0
116.28
100.0
116.19
100.0
116.05
100.0
115.96
100.0
116.0
100.0
116.15
100.0
116.21
100.0
116.39
100.0
116.6
100.0
116.73
100.0
116.8
100.0
116.76
100.0
116.64
100.0
116.42
100.0
116.25
100.0
116.04
100.0
115.77
100.0
115.64
100.0
115.67
100.0
115.6
100.0
115.75
100.0
115.81
100.0
115.93
100.0
116.27
100.0
116.3
100.0
116.47
100.0
116.43
100.0
116.35
100.0
116.12
100.0
115.96
100.0
115.53
100.0
115.44
100.0
115.36
100.0
115.31
100.0
115.26
100.0
115.33
100.0
115.48
100.0
115.62
100.0
115.92
100.0
115.93
100.0
116.06
100.0
116.11
100.0
115.85
100.0
115.78
100.0
115.44
100.0
115.27
100.0
115.07
100.0
115.01
100.0
114.93
100.0
114.98
100.0
115.03
100.0
114.99
100.0
115.21
100.0
115.4
100.0
115.6
100.0
115.75
100.0
115.8
100.0
115.73
100.0
115.56
100.0
115.42
100.0
115.25
100.0
114.98
100.0
114.77
100.0
114.71
100.0
114.55
100.0
114.61
100.0
114.77
100.0
114.91
100.0
115.13
100.0
115.31
100.0
115.48
100.0
115.47
100.0
115.41
100.0
115.35
100.0
115.06
100.0
114.92
100.0
114.6
100.0
114.53
100.0
114.44
100.0
114.35
100.0
114.41
100.0
114.53
100.0
114.64
100.0
114.83
100.0
115.04
100.0
115.17
100.0
115.3
100.0
115.19
100.0
115.13
100.0
114.93
100.0
114.66
100.0
114.49
100.0
114.38
100.0
114.18
100.0
114.17
100.0
114.11
100.0
114.28
100.0
114.4
100.0
114.58
100.0
114.83
100.0
114.95
100.0
115.06
100.0
114.99
100.0
114.88
100.0
114.71
100.0
114.44
100.0
114.14
100.0
114.1
100.0
113.91
100.0
113.91
100.0
113.87
100.0
113.94
100.0
114.14
100.0
114.18
100.0
114.54
100.0
114.64
100.0
114.68
100.0
114.63
100.0
114.56
100.0
114.42
100.0
114.24
100.0
113.97
100.0
113.84
100.0
113.71
100.0
113.68
100.0
113.69
100.0
113.76
100.0
113.88
100.0
114.1
100.0
114.15
100.0
114.46
100.0
114.54
100.0
114.58
100.0
114.42
100.0
114.22
100.0
113.92
100.0
113.77
100.0
113.61
100.0
113.38
100.0
113.45
100.0
113.36
100.0
113.57
100.0
113.69
100.0
113.86
100.0
114.09
100.0
114.18
100.0
114.27
100.0
114.21
100.0
114.24
100.0
113.99
100.0
113.86
100.0
113.6
100.0
113.35
100.0
113.32
100.0
113.27
100.0
113.29
100.0
113.4
100.0
113.52
100.0
113.64
100.0
113.86
100.0
113.99
100.0
114.14
100.0
114.09
100.0
113.94
100.0
113.7
100.0
113.51
100.0
113.27
100.0
113.29
100.0
113.09
100.0
113.02
100.0
113.12
100.0
113.17
100.0
113.28
100.0
113.42
100.0
113.61
100.0
113.83
100.0
113.89
100.0
113.82
100.0
113.87
100.0
113.6
100.0
113.35
100.0
113.2
100.0
112.97
100.0
112.93
100.0
112.91
100.0
112.81
100.0
112.97
100.0
113.12
100.0
113.35
100.0
113.46
100.0
113.61
100.0
113.78
100.0
113.7
100.0
113.51
100.0
113.45
100.0
113.1
100.0
112.91
100.0
112.87
100.0
112.72
100.0
112.73
100.0
112.62
100.0
112.84
100.0
113.04
100.0
113.23
100.0
113.42
100.0
113.54
100.0
113.5
100.0
113.58
100.0
113.42
100.0
113.21
100.0
112.96
100.0
112.84
100.0
112.59
100.0
112.64
100.0
112.54
100.0
112.59
100.0
112.68
100.0
112.94
100.0
113.14
100.0
113.29
100.0
113.5
100.0
113.42
100.0
113.32
100.0
113.18
100.0
112.85
100.0
112.65
100.0
112.47
100.0
112.37
100.0
112.34
100.0
112.43
100.0
112.49
100.0
112.64
100.0
112.75
100.0
112.92
100.0
113.21
100.0
113.27
100.0
113.29
100.0
113.11
100.0
112.94
100.0
112.7
100.0
112.41
100.0
112.27
100.0
112.24
100.0
112.1
100.0
112.2
100.0
112.28
100.0
112.51
100.0
112.7
100.0
112.85
100.0
113.09
100.0
113.05
100.0
113.04
100.0
112.99
100.0
112.82
100.0
112.6
100.0
112.34
100.0
112.21
100.0
112.11
100.0
112.06
100.0
112.11
100.0
112.14
100.0
112.32
100.0
112.53
100.0
112.74
100.0
112.87
100.0
112.85
100.0
112.89
100.0
112.74
100.0
112.6
100.0
112.36
100.0
112.23
100.0
111.99
100.0
111.87
100.0
111.83
100.0
111.94
100.0
111.94
100.0
112.15
100.0
112.33
100.0
112.6
100.0
112.72
100.0
112.73
100.0
112.79
100.0
112.61
100.0
112.43
100.0
112.14
100.0
111.94
100.0
111.8
100.0
111.72
100.0
111.71
100.0
111.72
100.0
111.9
100.0
112.0
100.0
112.31
100.0
112.4
100.0
112.62
100.0
112.66
100.0
112.58
100.0
112.36
100.0
112.29
100.0
112.0
100.0
111.89
100.0
111.75
100.0
111.67
100.0
111.58
100.0
111.56
100.0
111.72
100.0
111.86
100.0
112.09
100.0
112.18
100.0
112.4
100.0
112.58
100.0
112.49
100.0
112.33
100.0
112.11
100.0
111.87
100.0
111.7
100.0
111.61
100.0
111.42
100.0
111.38
100.0
111.43
100.0
111.46
100.0
111.79
100.0
111.94
100.0
112.21
100.0
112.31
100.0
112.32
100.0
112.27
100.0
112.14
100.0
111.95
100.0
111.86
100.0
111.64
100.0
111.43
100.0
111.38
100.0
111.32
100.0
111.38
100.0
111.46
100.0
111.66
100.0
111.85
100.0
112.08
100.0
112.21
100.0
112.22
100.0
112.16
100.0
112.04
100.0
111.91
100.0
111.74
100.0
111.42
100.0
111.4
100.0
111.18
100.0
111.2
100.0
111.12
100.0
111.33
100.0
111.59
100.0
111.75
100.0
111.82
100.0
111.99
100.0
112.1
100.0
112.12
100.0
111.97
100.0
111.71
100.0
111.43
100.0
111.34
100.0
111.18
100.0
111.05
100.0
111.07
100.0
111.07
100.0
111.06
100.0
111.27
100.0
111.57
100.0
111.63
100.0
111.79
100.0
112.02
100.0
111.91
100.0
111.79
100.0
111.67
100.0
111.41
100.0
111.22
100.0
111.08
100.0
110.98
100.0
110.91
100.0
110.93
100.0
110.96
100.0
111.19
100.0
111.37
100.0
111.5
100.0
111.72
100.0
111.85
100.0
111.78
100.0
111.65
100.0
111.58
100.0
111.35
100.0
111.12
100.0
110.93
100.0
110.85
100.0
110.8
100.0
110.82
100.0
110.91
100.0
111.02
100.0
111.15
100.0
111.38
100.0
111.63
100.0
111.67
100.0
111.61
100.0
111.57
100.0
111.37
100.0
111.21
100.0
110.96
100.0
110.81
100.0
110.77
100.0
110.64
100.0
110.68
100.0
110.71
100.0
110.99
100.0
111.1
100.0
111.3
100.0
111.42
100.0
111.54
100.0
111.51
100.0
111.4
100.0
111.27
100.0
111.04
100.0
110.86
100.0
110.7
100.0
110.52
100.0
110.52
100.0
110.54
100.0
110.6
100.0
110.79
100.0
110.92
100.0
111.07
100.0
111.19
100.0
111.51
100.0
111.48
100.0
111.41
100.0
111.18
100.0
111.01
100.0
110.72
100.0
110.57
100.0
110.43
100.0
110.41
100.0
110.46
100.0
110.6
100.0
110.68
100.0
110.79
100.0
111.12
100.0
111.24
100.0
111.25
100.0
111.28
100.0
111.11
100.0
111.03
100.0
110.78
100.0
110.61
100.0
110.4
100.0
110.27
100.0
110.19
100.0
110.24
100.0
110.36
100.0
110.53
100.0
110.76
100.0
110.89
100.0
111.06
100.0
111.15
100.0
111.17
100.0
111.07
100.0
110.95
100.0
110.73
100.0
110.48
100.0
110.26
100.0
110.21
100.0
110.18
100.0
110.21
100.0
110.25
100.0
110.52
100.0
110.54
100.0
110.76
100.0
110.93
100.0
111.08
100.0
111.13
100.0
110.91
100.0
110.86
100.0
110.59
100.0
110.4
100.0
110.1
100.0
110.04
100.0
110.01
100.0
110.03
100.0
109.99
100.0
110.18
100.0
110.4
100.0
110.48
100.0
110.69
100.0
110.97
100.0
110.89
100.0
110.87
100.0
110.68
100.0
110.51
100.0
110.28
100.0
110.11
100.0
109.95
100.0
109.88
100.0
109.84
100.0
109.94
100.0
110.06
100.0
110.21
100.0
110.4
100.0
110.58
100.0
110.76
100.0
110.81
100.0
110.76
100.0
110.68
100.0
110.46
100.0
110.23
100.0
109.98
100.0
109.93
100.0
109.78
100.0
109.95
100.0
109.87
100.0
110.02
100.0
110.12
100.0
110.3
100.0
110.64
100.0
110.75
100.0
110.74
100.0
110.68
100.0
110.58
100.0
110.41
100.0
110.16
100.0
109.91
100.0
109.8
100.0
109.74
100.0
109.7
100.0
109.76
100.0
109.97
100.0
110.03
100.0
110.3
100.0
110.44
100.0
110.56
100.0
110.64
100.0
110.56
100.0
110.47
100.0
110.23
100.0
109.98
100.0
109.71
100.0
109.7
100.0
109.6
100.0
109.59
100.0
109.63
100.0
109.88
100.0
110.05
100.0
110.17
100.0
110.41
100.0
110.52
100.0
110.51
100.0
110.56
100.0
110.41
100.0
110.09
100.0
109.98
100.0
109.84
100.0
109.57
100.0
109.52
100.0
109.45
100.0
109.55
100.0
109.64
100.0
109.89
100.0
110.01
100.0
110.17
100.0
110.36
100.0
110.45
100.0
110.47
100.0
110.29
100.0
110.02
100.0
109.98
100.0
109.68
100.0
109.54
100.0
109.44
100.0
109.41
100.0
109.42
100.0
109.56
100.0
109.68
100.0
109.82
100.0
110.01
100.0
110.19
100.0
110.27
100.0
110.25
100.0
110.2
100.0
110.05
100.0
109.88
100.0
109.57
100.0
109.51
100.0
109.39
100.0
109.32
100.0
109.3
100.0
109.43
100.0
109.55
100.0
109.7
100.0
109.83
100.0
110.1
100.0
110.29
100.0
110.23
100.0
110.1
100.0
109.98
100.0
109.72
100.0
109.46
100.0
109.35
100.0
109.29
100.0
109.29
100.0
109.15
100.0
109.27
100.0
109.43
100.0
109.62
100.0
109.92
100.0
109.99
100.0
110.12
100.0
109.94
100.0
110.05
100.0
109.91
100.0
109.56
100.0
109.38
100.0
109.14
100.0
109.03
100.0
109.04
100.0
109.05
100.0
109.05
100.0
109.15
100.0
109.42
100.0
109.58
100.0
109.76
100.0
110.0
100.0
110.01
100.0
109.97
100.0
109.87
100.0
109.72
100.0
109.48
100.0
109.28
100.0
109.07
100.0
108.94
100.0
108.93
100.0
108.93
100.0
109.04
100.0
109.23
