Capture frequency (Hz):
100.0
Time (s):
8.0
Gain:
1.0
Number of iterations:
800
100.00
3.21
100.0
-0.41
100.0
0.01
100.0
-0.16
100.0
-0.83
100.0
0.25
100.0
6.14
100.0
-2.13
100.0
0.12
100.0
6.61
100.0
1.41
100.0
8.6
100.0
-4.73
100.0
2.19
100.0
8.73
100.0
3.4
100.0
17.42
100.0
16.71
100.0
12.22
100.0
3.6
100.0
14.29
100.0
18.24
100.0
12.67
100.0
29.66
100.0
28.7
100.0
22.59
100.0
23.69
100.0
32.83
100.0
36.62
100.0
42.43
100.0
37.99
100.0
40.66
100.0
47.78
100.0
59.69
100.0
51.33
100.0
51.03
100.0
60.21
100.0
68.42
100.0
62.64
100.0
70.07
100.0
72.89
100.0
72.47
100.0
81.09
100.0
88.01
100.0
84.4
100.0
90.56
100.0
93.62
100.0
92.86
100.0
104.56
100.0
107.1
100.0
102.61
100.0
103.88
100.0
110.41
100.0
117.9
100.0
118.41
100.0
116.13
100.0
123.88
100.0
129.69
100.0
131.29
100.0
127.68
100.0
135.82
100.0
139.5
100.0
139.45
100.0
138.47
100.0
138.01
100.0
137.37
100.0
136.92
100.0
136.48
100.0
136.08
100.0
135.51
100.0
135.2
100.0
134.78
100.0
134.35
100.0
133.92
100.0
133.32
100.0
132.63
100.0
132.16
100.0
131.5
100.0
131.06
100.0
130.44
100.0
129.78
100.0
128.95
100.0
128.22
100.0
127.81
100.0
126.99
100.0
126.49
100.0
126.02
100.0
125.64
100.0
125.24
100.0
124.84
100.0
124.38
100.0
124.17
100.0
124.0
100.0
123.93
100.0
123.82
100.0
123.72
100.0
123.56
100.0
123.55
100.0
123.31
100.0
123.2
100.0
123.13
100.0
123.08
100.0
123.01
100.0
122.99
100.0
122.73
100.0
122.68
100.0
122.39
100.0
122.35
100.0
122.36
100.0
122.39
100.0
122.29
100.0
122.27
100.0
122.2
100.0
122.08
100.0
121.88
100.0
121.92
100.0
121.91
100.0
121.9
100.0
121.83
100.0
121.89
100.0
121.65
100.0
121.51
100.0
121.39
100.0
121.38
100.0
121.47
100.0
121.35
100.0
121.46
100.0
121.41
100.0
121.35
100.0
121.3
100.0
121.23
100.0
121.3
100.0
121.25
100.0
121.28
100.0
121.2
100.0
120.99
100.0
120.84
100.0
120.82
100.0
120.64
100.0
120.75
100.0
120.91
100.0
120.83
100.0
120.92
100.0
120.75
100.0
120.71
100.0
120.66
100.0
120.58
100.0
120.66
100.0
120.54
100.0
120.54
100.0
120.5
100.0
120.43
100.0
120.25
100.0
120.32
100.0
120.28
100.0
120.31
100.0
120.3
100.0
120.27
100.0
120.26
100.0
120.23
100.0
120.24
100.0
120.13
100.0
120.18
100.0
120.16
100.0
120.02
100.0
120.06
100.0
119.87
100.0
119.82
100.0
119.73
100.0
119.77
100.0
119.81
100.0
119.85
100.0
119.94
100.0
119.9
100.0
119.82
100.0
119.72
100.0
119.63
100.0
119.73
100.0
119.79
100.0
119.73
100.0
119.74
100.0
119.68
100.0
119.5
100.0
119.36
100.0
119.33
100.0
119.24
100.0
119.42
100.0
119.45
100.0
119.54
100.0
119.41
100.0
119.43
100.0
119.35
100.0
119.38
100.0
119.38
100.0
119.31
100.0
119.36
100.0
119.24
100.0
119.16
100.0
118.97
100.0
119.01
100.0
118.97
100.0
118.97
100.0
119.03
100.0
119.15
100.0
119.07
100.0
119.01
100.0
119.03
100.0
118.96
100.0
118.92
100.0
118.99
100.0
119.01
100.0
118.96
100.0
118.89
100.0
118.77
100.0
118.67
100.0
118.61
100.0
118.7
100.0
118.74
100.0
118.82
100.0
118.84
100.0
118.73
100.0
118.73
100.0
118.58
100.0
118.61
100.0
118.64
100.0
118.69
100.0
118.67
100.0
118.58
100.0
118.45
100.0
118.42
100.0
118.34
100.0
118.31
100.0
118.41
100.0
118.43
100.0
118.53
100.0
118.41
100.0
118.43
100.0
118.42
100.0
118.4
100.0
118.41
100.0
118.41
100.0
118.42
100.0
118.33
100.0
118.23
100.0
118.02
100.0
118.06
100.0
118.06
100.0
118.08
100.0
118.25
100.0
118.14
100.0
118.25
100.0
118.15
100.0
118.07
100.0
118.08
100.0
118.06
100.0
118.06
100.0
118.09
100.0
118.2
100.0
118.07
100.0
118.08
100.0
117.87
100.0
117.85
100.0
117.81
100.0
117.75
100.0
117.83
100.0
117.75
100.0
117.98
100.0
117.9
100.0
117.76
100.0
117.72
100.0
117.76
100.0
117.83
100.0
117.82
100.0
117.85
100.0
117.88
100.0
117.62
100.0
117.59
100.0
117.42
100.0
117.56
100.0
117.53
100.0
117.57
100.0
117.58
100.0
117.73
100.0
117.61
100.0
117.48
100.0
117.46
100.0
117.45
100.0
117.54
100.0
117.57
100.0
117.55
100.0
117.38
100.0
117.4
100.0
117.29
100.0
117.22
100.0
117.24
100.0
117.29
100.0
117.51
100.0
117.5
100.0
117.38
100.0
117.34
100.0
117.32
100.0
117.31
100.0
117.28
100.0
117.32
100.0
117.3
100.0
117.35
100.0
117.1
100.0
116.99
100.0
116.98
100.0
116.97
100.0
117.18
100.0
117.12
100.0
117.22
100.0
117.07
100.0
117.06
100.0
117.01
100.0
116.99
100.0
117.2
100.0
117.13
100.0
117.11
100.0
117.1
100.0
116.98
100.0
116.86
100.0
116.67
100.0
116.87
100.0
116.77
100.0
116.9
100.0
116.96
100.0
116.93
100.0
116.91
100.0
116.76
100.0
116.81
100.0
116.78
100.0
116.93
100.0
116.89
100.0
116.92
100.0
116.78
100.0
116.66
100.0
116.54
100.0
116.54
100.0
116.65
100.0
116.68
100.0
116.75
100.0
116.72
100.0
116.67
100.0
116.6
100.0
116.53
100.0
116.58
100.0
116.68
100.0
116.77
100.0
116.77
100.0
116.6
100.0
116.5
100.0
116.28
100.0
116.29
100.0
116.32
100.0
116.52
100.0
116.62
100.0
116.55
100.0
116.41
100.0
116.43
100.0
116.38
100.0
116.46
100.0
116.45
100.0
116.4
100.0
116.47
100.0
116.3
100.0
116.26
100.0
116.21
100.0
116.16
100.0
116.22
100.0
116.29
100.0
116.32
100.0
116.35
100.0
116.26
100.0
116.24
100.0
116.17
100.0
116.24
100.0
116.24
100.0
116.29
100.0
116.36
100.0
116.28
100.0
116.14
100.0
116.08
100.0
116.03
100.0
116.06
100.0
116.07
100.0
116.17
100.0
116.26
100.0
116.14
100.0
116.09
100.0
116.06
100.0
116.03
100.0
116.06
100.0
116.11
100.0
116.14
100.0
116.11
100.0
116.09
100.0
116.05
100.0
115.93
100.0
115.76
100.0
115.76
100.0
115.88
100.0
115.86
100.0
115.95
100.0
115.96
100.0
115.96
100.0
115.9
100.0
115.85
100.0
115.85
100.0
115.84
100.0
116.0
100.0
115.98
100.0
115.87
100.0
115.81
100.0
115.64
100.0
115.61
100.0
115.7
100.0
115.7
100.0
115.79
100.0
115.76
100.0
115.83
100.0
115.71
100.0
115.66
100.0
115.7
100.0
115.67
100.0
115.72
100.0
115.81
100.0
115.8
100.0
115.67
100.0
115.54
100.0
115.42
100.0
115.51
100.0
115.57
100.0
115.61
100.0
115.67
100.0
115.62
100.0
115.6
100.0
115.43
100.0
115.6
100.0
115.5
100.0
115.57
100.0
115.56
100.0
115.58
100.0
115.58
100.0
115.36
100.0
115.29
100.0
115.21
100.0
115.28
100.0
115.47
100.0
115.49
100.0
115.53
100.0
115.31
100.0
115.43
100.0
115.36
100.0
115.37
100.0
115.39
100.0
115.4
100.0
115.37
100.0
115.45
100.0
115.24
100.0
115.14
100.0
115.2
100.0
115.25
100.0
115.2
100.0
115.3
100.0
115.35
100.0
115.27
100.0
115.2
100.0
115.18
100.0
115.14
100.0
115.27
100.0
115.28
100.0
115.29
100.0
115.21
100.0
115.05
100.0
114.98
100.0
114.93
100.0
114.98
100.0
115.11
100.0
115.22
100.0
115.22
100.0
115.17
100.0
115.11
100.0
115.1
100.0
115.15
100.0
115.16
100.0
115.14
100.0
115.15
100.0
115.13
100.0
114.99
100.0
114.85
100.0
114.88
100.0
114.95
100.0
115.07
100.0
115.09
100.0
115.15
100.0
115.07
100.0
114.91
100.0
115.0
100.0
114.91
100.0
114.96
100.0
114.93
100.0
115.02
100.0
114.98
100.0
114.98
100.0
114.84
100.0
114.79
100.0
114.74
100.0
114.75
100.0
114.87
100.0
114.87
100.0
114.92
100.0
114.8
100.0
114.83
100.0
114.83
100.0
114.73
100.0
114.78
100.0
114.79
100.0
114.89
100.0
114.81
100.0
114.7
100.0
114.64
100.0
114.56
100.0
114.46
100.0
114.59
100.0
114.75
100.0
114.69
100.0
114.75
100.0
114.67
100.0
114.57
100.0
114.63
100.0
114.68
100.0
114.75
100.0
114.73
100.0
114.68
100.0
114.66
100.0
114.55
100.0
114.39
100.0
114.37
100.0
114.52
100.0
114.52
100.0
114.55
100.0
114.63
100.0
114.6
100.0
114.49
100.0
114.54
100.0
114.57
100.0
114.57
100.0
114.64
100.0
114.6
100.0
114.52
100.0
114.39
100.0
114.33
100.0
114.28
100.0
114.24
100.0
114.4
100.0
114.49
100.0
114.49
100.0
114.42
100.0
114.38
100.0
114.37
100.0
114.3
100.0
114.44
100.0
114.51
100.0
114.39
100.0
114.42
100.0
114.26
100.0
114.19
100.0
114.11
100.0
114.25
100.0
114.39
100.0
114.39
100.0
114.41
100.0
114.22
100.0
114.26
100.0
114.31
100.0
114.22
100.0
114.23
100.0
114.29
100.0
114.3
100.0
114.2
100.0
114.05
100.0
114.08
100.0
113.97
100.0
114.01
100.0
114.04
100.0
114.17
100.0
114.23
100.0
114.16
100.0
114.19
100.0
114.09
100.0
114.01
100.0
114.13
100.0
114.1
100.0
114.26
100.0
114.23
100.0
114.13
100.0
114.06
100.0
113.88
100.0
113.92
100.0
113.83
100.0
114.01
100.0
114.04
100.0
114.13
100.0
114.1
100.0
114.03
100.0
113.92
100.0
113.9
100.0
114.05
100.0
114.06
100.0
114.05
100.0
114.04
100.0
114.04
100.0
113.88
100.0
113.8
100.0
113.68
100.0
113.68
100.0
113.86
100.0
113.92
100.0
113.82
100.0
113.94
100.0
113.95
100.0
113.81
100.0
113.75
100.0
113.88
100.0
113.86
100.0
113.94
100.0
113.96
100.0
113.82
100.0
113.71
100.0
113.54
100.0
113.61
100.0
113.64
100.0
113.76
100.0
113.82
100.0
113.83
100.0
113.74
100.0
113.79
100.0
113.71
100.0
113.78
100.0
113.84
100.0
113.75
100.0
113.78
100.0
113.73
100.0
113.61
100.0
113.6
100.0
113.46
100.0
113.53
100.0
113.58
100.0
113.68
100.0
113.76
100.0
113.7
100.0
113.68
100.0
113.67
100.0
113.65
100.0
113.65
100.0
113.72
100.0
113.72
100.0
113.59
100.0
113.49
100.0
113.36
100.0
113.41
100.0
113.41
100.0
113.52
100.0
113.51
100.0
113.54
100.0
113.52
100.0
113.47
100.0
113.52
100.0
113.57
100.0
113.61
100.0
113.62
100.0
113.61
100.0
113.49
100.0
113.37
100.0
113.31
100.0
113.3
100.0
113.32
100.0
113.47
100.0
113.51
100.0
113.5
100.0
113.38
100.0
113.52
100.0
113.3
100.0
113.41
100.0
113.52
100.0
113.49
100.0
113.59
100.0
113.4
100.0
113.32
100.0
113.17
100.0
113.19
100.0
113.28
100.0
113.37
100.0
113.44
100.0
113.38
100.0
113.3
100.0
113.25
100.0
113.25
100.0
113.35
100.0
113.36
100.0
113.44
100.0
113.53
100.0
113.28
100.0
113.09
100.0
113.08
100.0
113.03
100.0
113.04
100.0
113.13
100.0
113.12
100.0
113.28
100.0
113.25
100.0
113.21
100.0
113.2
100.0
113.13
100.0
113.24
100.0
113.25
100.0
113.25
100.0
113.17
100.0
113.19
100.0
113.1
100.0
112.93
100.0
112.93
100.0
112.95
100.0
113.02
100.0
113.14
100.0
113.15
100.0
113.04
100.0
113.02
100.0
113.01
100.0
113.01
100.0
113.06
100.0
113.1
100.0
113.22
100.0
113.15
100.0
112.88
100.0
112.82
100.0
112.88
100.0
112.83
100.0
112.8
100.0
112.95
100.0
112.97
100.0
112.9
100.0
112.93
100.0
112.8
100.0
112.88
100.0
112.89
100.0
113.05
100.0
113.01
100.0
112.98
100.0
112.83
100.0
112.8
100.0
112.67
100.0
112.72
100.0
112.77
100.0
112.82
100.0
112.98
100.0
112.92
100.0
112.91
100.0
112.81
100.0
112.78
100.0
112.79
100.0
112.81
100.0
112.92
100.0
112.87
100.0
112.79
100.0
112.68
100.0
112.61
100.0
112.58
100.0
112.75
100.0
112.74
100.0
112.79
100.0
112.87
100.0
112.83
100.0
112.78
100.0
112.71
100.0
112.77
100.0
112.77
100.0
112.85
100.0
112.71
100.0
112.71
100.0
112.64
100.0
112.62
100.0
112.48
100.0
112.52
100.0
112.53
100.0
112.77
100.0
112.76
100.0
112.66
100.0
112.62
100.0
112.61
100.0
112.64
100.0
112.73
100.0
112.71
100.0
112.7
100.0
112.75
100.0
112.52
100.0
112.51
100.0
112.37
100.0
112.46
