Capture frequency (Hz):
100.0
Time (s):
8.0
Gain:
1.0
Number of iterations:
800
100.00
3.71
100.0
44.44
100.0
46.48
100.0
44.0
100.0
42.79
100.0
42.14
100.0
41.64
100.0
41.34
100.0
41.23
100.0
41.05
100.0
40.97
100.0
40.93
100.0
40.92
100.0
40.92
100.0
41.0
100.0
40.99
100.0
41.07
100.0
40.94
100.0
40.95
100.0
40.85
100.0
40.86
100.0
40.8
100.0
40.59
100.0
40.56
100.0
40.49
100.0
40.47
100.0
40.37
100.0
40.4
100.0
40.48
100.0
40.55
100.0
40.62
100.0
40.75
100.0
40.84
100.0
40.99
100.0
41.04
100.0
41.19
100.0
41.2
100.0
41.49
100.0
41.59
100.0
41.63
100.0
41.63
100.0
41.64
100.0
41.6
100.0
41.57
100.0
41.71
100.0
41.73
100.0
41.81
100.0
41.92
100.0
42.12
100.0
42.32
100.0
42.42
100.0
42.63
100.0
42.78
100.0
43.01
100.0
43.18
100.0
43.25
100.0
43.29
100.0
43.38
100.0
43.49
100.0
43.58
100.0
43.76
100.0
43.92
100.0
44.13
100.0
44.24
100.0
44.49
100.0
44.74
100.0
44.98
100.0
45.21
100.0
46.04
100.0
46.49
100.0
46.95
100.0
47.55
100.0
48.21
100.0
48.8
100.0
49.53
100.0
50.21
100.0
51.09
100.0
52.04
100.0
42.67
100.0
39.62
100.0
39.48
100.0
89.64
100.0
153.11
100.0
136.67
100.0
134.96
100.0
159.65
100.0
216.13
100.0
204.22
100.0
186.62
100.0
174.87
100.0
175.1
100.0
174.87
100.0
174.64
100.0
174.17
100.0
173.77
100.0
173.22
100.0
172.85
100.0
172.41
100.0
171.86
100.0
171.45
100.0
171.01
100.0
170.56
100.0
170.09
100.0
169.55
100.0
169.15
100.0
168.7
100.0
168.35
100.0
167.84
100.0
167.36
100.0
166.94
100.0
166.53
100.0
166.18
100.0
165.55
100.0
165.18
100.0
164.78
100.0
164.41
100.0
163.94
100.0
163.49
100.0
162.99
100.0
162.54
100.0
162.16
100.0
161.8
100.0
161.23
100.0
160.84
100.0
160.41
100.0
159.96
100.0
159.56
100.0
159.06
100.0
158.62
100.0
158.19
100.0
157.71
100.0
157.31
100.0
156.84
100.0
156.41
100.0
155.96
100.0
155.34
100.0
155.04
100.0
154.4
100.0
154.02
100.0
153.57
100.0
153.06
100.0
152.59
100.0
152.01
100.0
151.6
100.0
151.15
100.0
150.51
100.0
149.28
100.0
148.42
100.0
147.5
100.0
145.64
100.0
143.74
100.0
141.21
100.0
140.07
100.0
139.43
100.0
138.95
100.0
138.42
100.0
138.17
100.0
137.93
100.0
137.45
100.0
136.9
100.0
136.3
100.0
136.12
100.0
136.1
100.0
135.92
100.0
135.76
100.0
135.51
100.0
135.06
100.0
134.67
100.0
134.33
100.0
134.05
100.0
133.93
100.0
133.77
100.0
133.54
100.0
133.26
100.0
132.76
100.0
132.26
100.0
131.78
100.0
131.54
100.0
131.59
100.0
131.53
100.0
131.51
100.0
131.38
100.0
130.71
100.0
130.3
100.0
130.18
100.0
130.08
100.0
129.83
100.0
129.7
100.0
129.36
100.0
128.85
100.0
128.36
100.0
128.01
100.0
127.91
100.0
127.9
100.0
127.86
100.0
127.67
100.0
127.39
100.0
126.98
100.0
126.68
100.0
126.55
100.0
126.44
100.0
126.45
100.0
126.32
100.0
126.37
100.0
126.09
100.0
125.52
100.0
124.88
100.0
124.67
100.0
124.63
100.0
124.87
100.0
124.65
100.0
124.5
100.0
124.19
100.0
123.87
100.0
123.94
100.0
123.95
100.0
123.67
100.0
123.26
100.0
122.96
100.0
122.76
100.0
122.25
100.0
121.97
100.0
121.7
100.0
121.74
100.0
121.99
100.0
122.1
100.0
121.74
100.0
121.22
100.0
120.99
100.0
120.73
100.0
120.68
100.0
120.68
100.0
120.49
100.0
120.4
100.0
120.05
100.0
119.76
100.0
119.25
100.0
119.07
100.0
118.89
100.0
118.88
100.0
119.1
100.0
118.89
100.0
118.69
100.0
118.43
100.0
118.04
100.0
117.79
100.0
117.63
100.0
117.54
100.0
117.53
100.0
117.51
100.0
117.23
100.0
116.89
100.0
116.58
100.0
116.25
100.0
116.14
100.0
116.16
100.0
116.17
100.0
116.03
100.0
115.75
100.0
115.26
100.0
115.05
100.0
114.89
100.0
114.79
100.0
114.91
100.0
114.76
100.0
114.66
100.0
114.23
100.0
113.88
100.0
113.53
100.0
113.42
100.0
113.55
100.0
113.45
100.0
113.34
100.0
113.1
100.0
112.72
100.0
112.5
100.0
112.29
100.0
112.29
100.0
112.2
100.0
112.08
100.0
111.88
100.0
111.57
100.0
111.23
100.0
111.09
100.0
111.21
100.0
111.31
100.0
111.65
100.0
111.37
100.0
110.85
100.0
110.37
100.0
109.98
100.0
109.83
100.0
109.72
100.0
109.77
100.0
109.86
100.0
109.77
100.0
109.46
100.0
108.98
100.0
108.59
100.0
108.39
100.0
108.29
100.0
108.44
100.0
108.39
100.0
108.22
100.0
107.99
100.0
107.62
100.0
107.38
100.0
107.32
100.0
107.25
100.0
107.31
100.0
107.19
100.0
106.94
100.0
106.83
100.0
106.65
100.0
106.53
100.0
106.66
100.0
106.84
100.0
107.11
100.0
107.2
100.0
107.02
100.0
106.95
100.0
106.8
100.0
106.73
100.0
105.91
100.0
105.7
100.0
105.66
100.0
105.43
100.0
105.1
100.0
104.84
100.0
104.59
100.0
104.7
100.0
104.87
100.0
104.57
100.0
104.42
100.0
104.12
100.0
103.87
100.0
103.66
100.0
103.53
100.0
103.48
100.0
103.44
100.0
103.46
100.0
103.22
100.0
102.82
100.0
102.41
100.0
102.17
100.0
102.17
100.0
102.29
100.0
102.29
100.0
102.23
100.0
101.92
100.0
101.7
100.0
101.44
100.0
101.45
100.0
101.66
100.0
101.77
100.0
101.24
100.0
100.86
100.0
100.59
100.0
100.21
100.0
99.91
100.0
99.77
100.0
99.68
100.0
99.64
100.0
99.61
100.0
99.56
100.0
99.45
100.0
99.42
100.0
99.34
100.0
99.13
100.0
99.0
100.0
98.82
100.0
98.6
100.0
98.39
100.0
98.27
100.0
98.03
100.0
97.77
100.0
97.64
100.0
97.51
100.0
97.48
100.0
97.19
100.0
97.18
100.0
97.1
100.0
97.0
100.0
97.0
100.0
96.99
100.0
97.17
100.0
97.12
100.0
97.27
100.0
97.23
100.0
97.25
100.0
97.29
100.0
97.16
100.0
97.19
100.0
97.02
100.0
97.08
100.0
96.95
100.0
96.8
100.0
96.81
100.0
96.71
100.0
96.72
100.0
96.72
100.0
96.74
100.0
96.75
100.0
96.82
100.0
96.94
100.0
96.99
100.0
97.06
100.0
97.01
100.0
96.94
100.0
96.96
100.0
96.93
100.0
96.86
100.0
96.83
100.0
96.75
100.0
96.61
100.0
96.66
100.0
96.61
100.0
96.7
100.0
96.77
100.0
96.71
100.0
96.7
100.0
96.85
100.0
96.74
100.0
96.79
100.0
96.83
100.0
96.78
100.0
96.83
100.0
96.88
100.0
96.85
100.0
96.73
100.0
96.65
100.0
96.65
100.0
96.36
100.0
96.42
100.0
96.36
100.0
96.21
100.0
96.28
100.0
96.19
100.0
95.13
100.0
94.67
100.0
94.42
100.0
94.34
100.0
94.22
100.0
94.26
100.0
94.08
100.0
93.91
100.0
93.6
100.0
93.29
100.0
93.01
100.0
92.68
100.0
92.35
100.0
92.05
100.0
91.75
100.0
91.42
100.0
91.38
100.0
91.15
100.0
90.92
100.0
90.73
100.0
90.66
100.0
90.46
100.0
90.36
100.0
90.2
100.0
90.06
100.0
89.9
100.0
89.8
100.0
89.5
100.0
89.32
100.0
89.08
100.0
88.8
100.0
88.55
100.0
88.29
100.0
88.06
100.0
87.84
100.0
87.63
100.0
87.42
100.0
87.4
100.0
87.47
100.0
87.56
100.0
87.63
100.0
87.17
100.0
87.02
100.0
86.91
100.0
86.75
100.0
86.59
100.0
86.5
100.0
86.54
100.0
86.41
100.0
86.18
100.0
85.98
100.0
85.84
100.0
85.71
100.0
85.58
100.0
85.31
100.0
85.35
100.0
85.24
100.0
85.03
100.0
84.91
100.0
84.75
100.0
84.75
100.0
84.62
100.0
84.58
100.0
84.34
100.0
84.37
100.0
84.25
100.0
84.1
100.0
83.99
100.0
83.74
100.0
83.57
100.0
83.26
100.0
82.91
100.0
82.65
100.0
82.34
100.0
82.26
100.0
82.14
100.0
81.98
100.0
81.94
100.0
81.78
100.0
81.82
100.0
81.74
100.0
81.79
100.0
81.65
100.0
81.6
100.0
81.38
100.0
81.11
100.0
80.92
100.0
80.7
100.0
80.55
100.0
80.29
100.0
80.16
100.0
80.08
100.0
79.85
100.0
79.8
100.0
79.73
100.0
78.17
100.0
76.26
100.0
74.85
100.0
73.66
100.0
72.01
100.0
70.73
100.0
69.42
100.0
68.27
100.0
67.03
100.0
65.95
100.0
64.66
100.0
63.61
100.0
62.44
100.0
61.3
100.0
60.43
100.0
59.32
100.0
58.3
100.0
57.53
100.0
56.26
100.0
55.15
100.0
54.16
100.0
53.3
100.0
52.56
100.0
51.67
100.0
50.76
100.0
49.66
100.0
48.63
100.0
47.79
100.0
47.13
100.0
47.25
100.0
46.28
100.0
45.34
100.0
44.41
100.0
43.58
100.0
42.51
100.0
41.67
100.0
40.88
100.0
40.24
100.0
39.61
100.0
38.96
100.0
38.53
100.0
37.87
100.0
37.38
100.0
36.9
100.0
36.47
100.0
35.87
100.0
35.47
100.0
34.88
100.0
34.38
100.0
33.86
100.0
33.25
100.0
32.69
100.0
32.0
100.0
31.67
100.0
31.12
100.0
30.75
100.0
30.4
100.0
30.07
100.0
29.82
100.0
29.61
100.0
29.42
100.0
29.23
100.0
29.03
100.0
28.88
100.0
28.68
100.0
28.52
100.0
28.26
100.0
28.04
100.0
27.73
100.0
27.54
100.0
27.25
100.0
27.04
100.0
26.76
100.0
26.58
100.0
26.4
100.0
26.22
100.0
26.51
100.0
26.49
100.0
26.42
100.0
26.54
100.0
26.73
100.0
27.32
100.0
22.28
100.0
13.58
100.0
11.71
100.0
36.01
100.0
125.27
100.0
105.81
100.0
99.33
100.0
155.91
100.0
185.53
100.0
165.87
100.0
156.85
100.0
150.63
100.0
219.89
100.0
194.06
100.0
179.98
100.0
172.94
100.0
166.21
100.0
159.87
100.0
153.66
100.0
147.59
100.0
141.8
100.0
136.05
100.0
130.57
100.0
125.36
100.0
120.0
100.0
114.88
100.0
109.36
100.0
103.96
100.0
100.39
100.0
97.28
100.0
94.26
100.0
91.33
100.0
88.44
100.0
85.9
100.0
83.87
100.0
81.9
100.0
79.71
100.0
77.6
100.0
75.58
100.0
73.44
100.0
71.35
100.0
69.41
100.0
67.56
100.0
65.92
100.0
64.35
100.0
62.92
100.0
61.4
100.0
59.99
100.0
58.48
100.0
57.0
100.0
55.48
100.0
53.96
100.0
52.38
100.0
50.77
100.0
50.33
100.0
49.21
100.0
47.87
100.0
46.45
100.0
44.94
100.0
43.75
100.0
42.65
100.0
41.69
100.0
40.91
100.0
40.1
100.0
39.37
100.0
38.61
100.0
37.96
100.0
37.26
100.0
36.64
100.0
36.01
100.0
35.4
100.0
34.69
100.0
34.09
100.0
33.52
100.0
32.91
100.0
32.34
100.0
31.7
100.0
31.12
100.0
30.72
100.0
30.04
100.0
29.46
100.0
28.98
100.0
28.4
100.0
27.86
100.0
27.35
100.0
26.67
100.0
26.16
100.0
25.62
100.0
24.9
100.0
24.45
100.0
23.99
100.0
23.57
100.0
23.19
100.0
23.19
100.0
22.78
100.0
22.61
100.0
22.67
100.0
23.0
100.0
22.56
100.0
10.49
100.0
8.26
100.0
9.28
100.0
108.87
100.0
103.59
100.0
95.73
100.0
123.65
100.0
182.28
100.0
159.62
100.0
151.39
100.0
159.71
100.0
213.39
100.0
187.72
100.0
168.56
100.0
161.49
100.0
154.44
100.0
147.7
100.0
141.09
100.0
134.96
100.0
128.77
100.0
122.8
100.0
116.95
100.0
110.82
100.0
105.07
100.0
100.85
100.0
97.05
100.0
93.52
100.0
90.34
100.0
87.47
100.0
84.85
100.0
82.2
100.0
79.82
100.0
77.29
100.0
74.83
100.0
72.71
100.0
70.53
100.0
68.57
100.0
66.72
100.0
64.64
100.0
62.52
100.0
60.42
100.0
58.47
100.0
56.6
100.0
54.67
100.0
52.69
100.0
50.86
100.0
49.66
100.0
48.83
100.0
47.25
100.0
45.72
100.0
44.5
100.0
43.28
100.0
42.13
100.0
41.05
100.0
39.96
100.0
38.95
100.0
37.86
100.0
36.85
100.0
35.8
100.0
34.86
100.0
33.9
100.0
32.98
100.0
32.19
100.0
31.27
100.0
30.58
100.0
29.89
100.0
29.12
100.0
28.52
100.0
27.77
100.0
27.08
100.0
26.39
100.0
25.93
100.0
25.3
100.0
24.77
100.0
24.34
100.0
23.82
100.0
23.35
100.0
22.99
100.0
22.51
100.0
22.18
100.0
21.95
100.0
22.15
100.0
22.12
100.0
22.14
100.0
22.35
100.0
23.04
100.0
16.3
