Capture frequency (Hz):
100.0
Time (s):
8.0
Gain:
1.0
Number of iterations:
800
100.00
3.28
100.0
-0.05
100.0
0.57
100.0
0.5
100.0
-0.24
100.0
1.63
100.0
6.48
100.0
-0.23
100.0
5.42
100.0
9.51
100.0
9.68
100.0
18.73
100.0
5.57
100.0
11.69
100.0
19.18
100.0
19.57
100.0
29.54
100.0
34.31
100.0
27.61
100.0
32.53
100.0
36.41
100.0
50.97
100.0
53.73
100.0
53.2
100.0
82.14
100.0
82.96
100.0
95.17
100.0
111.18
100.0
108.24
100.0
113.08
100.0
137.11
100.0
136.05
100.0
132.39
100.0
146.51
100.0
157.19
100.0
155.93
100.0
154.46
100.0
153.15
100.0
152.2
100.0
151.35
100.0
150.65
100.0
150.05
100.0
149.41
100.0
148.87
100.0
148.46
100.0
147.94
100.0
147.42
100.0
147.13
100.0
146.68
100.0
146.31
100.0
145.96
100.0
145.58
100.0
145.15
100.0
144.66
100.0
144.21
100.0
143.72
100.0
143.19
100.0
142.47
100.0
141.68
100.0
140.81
100.0
140.1
100.0
139.27
100.0
138.28
100.0
137.12
100.0
135.82
100.0
134.49
100.0
133.28
100.0
132.15
100.0
130.92
100.0
130.04
100.0
129.11
100.0
128.24
100.0
127.55
100.0
126.83
100.0
126.44
100.0
126.03
100.0
125.84
100.0
125.67
100.0
125.39
100.0
125.24
100.0
124.84
100.0
124.64
100.0
124.55
100.0
124.58
100.0
124.44
100.0
124.38
100.0
124.25
100.0
123.95
100.0
123.75
100.0
123.67
100.0
123.81
100.0
123.7
100.0
123.81
100.0
123.64
100.0
123.48
100.0
123.49
100.0
123.39
100.0
123.41
100.0
123.52
100.0
123.52
100.0
123.27
100.0
123.13
100.0
123.01
100.0
122.8
100.0
123.0
100.0
122.98
100.0
123.0
100.0
123.01
100.0
122.88
100.0
122.74
100.0
122.82
100.0
122.75
100.0
122.78
100.0
122.8
100.0
122.84
100.0
122.7
100.0
122.61
100.0
122.37
100.0
122.34
100.0
122.35
100.0
122.44
100.0
122.52
100.0
122.5
100.0
122.36
100.0
122.3
100.0
122.23
100.0
122.28
100.0
122.38
100.0
122.32
100.0
122.28
100.0
122.14
100.0
121.93
100.0
121.83
100.0
121.8
100.0
121.83
100.0
122.01
100.0
122.1
100.0
121.95
100.0
121.89
100.0
121.79
100.0
121.83
100.0
121.87
100.0
121.88
100.0
121.88
100.0
121.84
100.0
121.7
100.0
121.49
100.0
121.44
100.0
121.46
100.0
121.62
100.0
121.62
100.0
121.58
100.0
121.58
100.0
121.41
100.0
121.49
100.0
121.55
100.0
121.53
100.0
121.57
100.0
121.52
100.0
121.42
100.0
121.21
100.0
121.08
100.0
121.15
100.0
121.15
100.0
121.27
100.0
121.21
100.0
121.21
100.0
121.23
100.0
121.12
100.0
121.14
100.0
121.05
100.0
121.19
100.0
121.21
100.0
121.18
100.0
120.95
100.0
120.87
100.0
120.8
100.0
120.71
100.0
120.79
100.0
120.95
100.0
120.92
100.0
120.9
100.0
120.79
100.0
120.81
100.0
120.72
100.0
120.81
100.0
120.84
100.0
120.94
100.0
120.71
100.0
120.66
100.0
120.55
100.0
120.43
100.0
120.53
100.0
120.59
100.0
120.55
100.0
120.65
100.0
120.65
100.0
120.54
100.0
120.48
100.0
120.49
100.0
120.55
100.0
120.59
100.0
120.52
100.0
120.46
100.0
120.38
100.0
120.2
100.0
120.28
100.0
120.19
100.0
120.38
100.0
120.43
100.0
120.4
100.0
120.21
100.0
120.14
100.0
120.19
100.0
120.29
100.0
120.27
100.0
120.26
100.0
120.19
100.0
120.07
100.0
119.94
100.0
119.92
100.0
119.96
100.0
120.04
100.0
119.96
100.0
120.06
100.0
120.03
100.0
119.93
100.0
119.9
100.0
119.99
100.0
120.0
100.0
120.04
100.0
120.05
100.0
119.98
100.0
119.94
100.0
119.66
100.0
119.64
100.0
119.69
100.0
119.76
100.0
119.77
100.0
119.86
100.0
119.8
100.0
119.67
100.0
119.65
100.0
119.64
100.0
119.66
100.0
119.76
100.0
119.81
100.0
119.68
100.0
119.6
100.0
119.44
100.0
119.39
100.0
119.47
100.0
119.5
100.0
119.49
100.0
119.51
100.0
119.42
100.0
119.45
100.0
119.45
100.0
119.36
100.0
119.55
100.0
119.48
100.0
119.5
100.0
119.46
100.0
119.33
100.0
119.11
100.0
119.19
100.0
119.24
100.0
119.27
100.0
119.24
100.0
119.27
100.0
119.27
100.0
119.25
100.0
119.17
100.0
119.2
100.0
119.3
100.0
119.42
100.0
119.29
100.0
119.12
100.0
118.98
100.0
118.96
100.0
118.84
100.0
118.96
100.0
119.11
100.0
119.14
100.0
119.03
100.0
118.95
100.0
118.93
100.0
118.85
100.0
118.93
100.0
119.09
100.0
119.02
100.0
119.08
100.0
118.95
100.0
118.85
100.0
118.71
100.0
118.71
100.0
118.8
100.0
118.88
100.0
118.9
100.0
118.82
100.0
118.72
100.0
118.66
100.0
118.71
100.0
118.76
100.0
118.83
100.0
118.83
100.0
118.92
100.0
118.79
100.0
118.63
100.0
118.56
100.0
118.54
100.0
118.57
100.0
118.65
100.0
118.69
100.0
118.67
100.0
118.53
100.0
118.57
100.0
118.54
100.0
118.65
100.0
118.68
100.0
118.76
100.0
118.56
100.0
118.43
100.0
118.31
100.0
118.29
100.0
118.37
100.0
118.43
100.0
118.52
100.0
118.43
100.0
118.35
100.0
118.34
100.0
118.3
100.0
118.38
100.0
118.42
100.0
118.45
100.0
118.49
100.0
118.31
100.0
118.11
100.0
118.14
100.0
118.03
100.0
118.05
100.0
118.12
100.0
118.17
100.0
118.21
100.0
118.07
100.0
118.04
100.0
118.1
100.0
118.12
100.0
118.25
100.0
118.21
100.0
118.23
100.0
118.12
100.0
118.05
100.0
117.88
100.0
117.76
100.0
117.95
100.0
117.85
100.0
118.05
100.0
117.95
100.0
117.91
100.0
117.98
100.0
117.9
100.0
117.94
100.0
117.97
100.0
118.08
100.0
118.02
100.0
118.04
100.0
117.83
100.0
117.77
100.0
117.58
100.0
117.58
100.0
117.75
100.0
117.84
100.0
117.8
100.0
117.8
100.0
117.69
100.0
117.75
100.0
117.63
100.0
117.86
100.0
117.82
100.0
117.87
100.0
117.77
100.0
117.61
100.0
117.56
100.0
117.5
100.0
117.54
100.0
117.63
100.0
117.7
100.0
117.67
100.0
117.62
100.0
117.49
100.0
117.57
100.0
117.63
100.0
117.63
100.0
117.73
100.0
117.76
100.0
117.58
100.0
117.51
100.0
117.32
100.0
117.38
100.0
117.38
100.0
117.49
100.0
117.48
100.0
117.42
100.0
117.34
100.0
117.29
100.0
117.31
100.0
117.41
100.0
117.55
100.0
117.48
100.0
117.52
100.0
117.33
100.0
117.16
100.0
117.14
100.0
117.14
100.0
117.24
100.0
117.24
100.0
117.34
100.0
117.2
100.0
117.13
100.0
117.17
100.0
117.14
100.0
117.35
100.0
117.3
100.0
117.26
100.0
117.09
100.0
117.12
100.0
116.89
100.0
116.93
100.0
116.92
100.0
117.03
100.0
117.1
100.0
117.18
100.0
117.06
100.0
117.06
100.0
117.06
100.0
117.0
100.0
117.03
100.0
117.14
100.0
117.09
100.0
117.04
100.0
116.99
100.0
116.86
100.0
116.79
100.0
116.78
100.0
116.87
100.0
116.99
100.0
117.0
100.0
116.94
100.0
116.88
100.0
116.86
100.0
116.85
100.0
116.92
100.0
116.96
100.0
116.94
100.0
116.84
100.0
116.8
100.0
116.63
100.0
116.61
100.0
116.52
100.0
116.78
100.0
116.8
100.0
116.72
100.0
116.75
100.0
116.63
100.0
116.75
100.0
116.65
100.0
116.75
100.0
116.77
100.0
116.72
100.0
116.67
100.0
116.6
100.0
116.36
100.0
116.4
100.0
116.51
100.0
116.51
100.0
116.55
100.0
116.66
100.0
116.48
100.0
116.53
100.0
116.52
100.0
116.51
100.0
116.72
100.0
116.64
100.0
116.69
100.0
116.51
100.0
116.33
100.0
116.27
100.0
116.39
100.0
116.28
100.0
116.41
100.0
116.43
100.0
116.46
100.0
116.39
100.0
116.35
100.0
116.34
100.0
116.38
100.0
116.47
100.0
116.44
100.0
116.41
100.0
116.27
100.0
116.09
100.0
116.03
100.0
116.15
100.0
116.22
100.0
116.2
100.0
116.24
100.0
116.28
100.0
116.09
100.0
116.16
100.0
116.16
100.0
116.21
100.0
116.26
100.0
116.36
100.0
116.22
100.0
116.22
100.0
116.1
100.0
115.93
100.0
116.05
100.0
116.01
100.0
116.03
100.0
116.11
100.0
116.08
100.0
116.05
100.0
116.05
100.0
115.88
100.0
116.02
100.0
116.1
100.0
116.19
100.0
116.16
100.0
116.18
100.0
115.82
100.0
115.86
100.0
115.8
100.0
115.81
100.0
115.9
100.0
115.97
100.0
115.94
100.0
115.93
100.0
115.89
100.0
115.95
100.0
115.94
100.0
116.02
100.0
116.02
100.0
116.02
100.0
115.94
100.0
115.91
100.0
115.64
100.0
115.61
100.0
115.64
100.0
115.75
100.0
115.83
100.0
115.81
100.0
115.8
100.0
115.7
100.0
115.68
100.0
115.78
100.0
115.81
100.0
115.82
100.0
115.77
100.0
115.8
100.0
115.67
100.0
115.5
100.0
115.46
100.0
115.52
100.0
115.58
100.0
115.71
100.0
115.67
100.0
115.63
100.0
115.54
100.0
115.59
100.0
115.59
100.0
115.57
100.0
115.67
100.0
115.67
100.0
115.49
100.0
115.41
100.0
115.26
100.0
115.31
100.0
115.4
100.0
115.45
100.0
115.44
100.0
115.42
100.0
115.42
100.0
115.36
100.0
115.41
100.0
115.39
100.0
115.62
100.0
115.64
100.0
115.52
100.0
115.33
100.0
115.18
100.0
115.16
100.0
115.19
100.0
115.33
100.0
115.28
100.0
115.43
100.0
115.3
100.0
115.23
100.0
115.29
100.0
115.32
100.0
115.35
100.0
115.39
100.0
115.43
100.0
115.18
100.0
115.17
100.0
115.08
100.0
115.05
100.0
115.04
100.0
115.1
100.0
115.16
100.0
115.18
100.0
115.09
100.0
115.15
100.0
115.12
100.0
115.16
100.0
115.15
100.0
115.29
100.0
115.32
100.0
115.18
100.0
115.03
100.0
114.86
100.0
114.91
100.0
114.91
100.0
115.07
100.0
115.15
100.0
115.14
100.0
115.1
100.0
114.95
100.0
114.95
100.0
114.99
100.0
115.09
100.0
115.13
100.0
115.08
100.0
115.02
100.0
114.91
100.0
114.8
100.0
114.63
100.0
114.73
100.0
114.86
100.0
114.91
100.0
114.85
100.0
114.87
100.0
114.72
100.0
114.75
100.0
114.87
100.0
114.9
100.0
114.95
100.0
114.94
100.0
114.92
100.0
114.72
100.0
114.6
100.0
114.54
100.0
114.58
100.0
114.77
100.0
114.73
100.0
114.77
100.0
114.66
100.0
114.63
100.0
114.74
100.0
114.74
100.0
114.75
100.0
114.84
100.0
114.77
100.0
114.59
100.0
114.51
100.0
114.52
100.0
114.41
100.0
114.53
100.0
114.61
100.0
114.64
100.0
114.54
100.0
114.57
100.0
114.47
100.0
114.52
100.0
114.59
100.0
114.6
100.0
114.69
100.0
114.55
100.0
114.46
100.0
114.4
100.0
114.29
100.0
114.32
100.0
114.46
100.0
114.46
100.0
114.49
100.0
114.47
100.0
114.44
100.0
114.29
100.0
114.46
100.0
114.58
100.0
114.58
100.0
114.61
100.0
114.35
100.0
114.27
100.0
114.17
100.0
114.09
100.0
114.18
100.0
114.36
100.0
114.36
100.0
114.38
100.0
114.24
100.0
114.28
100.0
114.24
100.0
114.23
100.0
114.37
100.0
114.44
100.0
114.33
100.0
114.28
100.0
114.16
100.0
114.04
100.0
113.99
100.0
114.08
100.0
114.18
100.0
114.25
100.0
114.22
100.0
114.21
100.0
114.17
100.0
114.24
100.0
114.19
100.0
114.27
100.0
114.32
100.0
114.22
100.0
114.19
100.0
113.95
100.0
114.02
100.0
113.93
100.0
113.95
100.0
114.06
100.0
114.14
100.0
114.21
100.0
114.08
100.0
114.05
100.0
114.0
100.0
114.09
100.0
114.05
100.0
114.1
100.0
114.14
100.0
114.08
100.0
114.07
100.0
113.83
100.0
113.82
100.0
113.85
100.0
113.83
100.0
113.92
100.0
113.96
100.0
113.92
100.0
113.88
100.0
113.94
100.0
113.87
100.0
113.99
100.0
114.06
100.0
114.14
100.0
114.04
100.0
113.88
100.0
113.78
100.0
113.72
100.0
113.74
100.0
113.86
100.0
113.85
100.0
113.87
100.0
113.81
100.0
113.77
100.0
113.67
100.0
113.79
100.0
113.89
100.0
113.86
100.0
113.87
100.0
113.8
100.0
113.75
100.0
113.61
100.0
113.56
100.0
113.61
100.0
113.74
100.0
113.78
100.0
113.68
100.0
113.64
100.0
113.64
100.0
113.58
100.0
113.67
100.0
113.71
100.0
113.77
100.0
113.69
100.0
113.61
100.0
113.49
100.0
113.43
100.0
113.35
100.0
113.58
100.0
113.54
100.0
113.52
100.0
113.51
100.0
113.49
100.0
113.51
100.0
113.57
100.0
113.52
100.0
113.59
100.0
113.61
100.0
113.56
100.0
113.41
100.0
113.29
100.0
113.3
