Capture frequency (Hz):
100.0
Time (s):
8.0
Gain:
1.0
Number of iterations:
800
100.00
3.27
100.0
-0.34
100.0
-0.05
100.0
-0.66
100.0
-1.91
100.0
1.51
100.0
0.89
100.0
4.52
100.0
7.62
100.0
-6.11
100.0
0.11
100.0
7.97
100.0
2.4
100.0
17.3
100.0
18.76
100.0
14.54
100.0
10.62
100.0
17.61
100.0
24.09
100.0
22.1
100.0
35.57
100.0
40.49
100.0
33.78
100.0
45.2
100.0
49.48
100.0
57.83
100.0
66.84
100.0
62.23
100.0
85.33
100.0
85.65
100.0
85.26
100.0
113.93
100.0
116.86
100.0
112.17
100.0
126.69
100.0
141.44
100.0
133.97
100.0
134.01
100.0
151.33
100.0
160.05
100.0
157.54
100.0
155.97
100.0
154.62
100.0
153.38
100.0
152.16
100.0
150.95
100.0
149.69
100.0
148.54
100.0
147.39
100.0
146.05
100.0
144.68
100.0
143.08
100.0
141.32
100.0
139.67
100.0
138.18
100.0
136.73
100.0
135.61
100.0
134.52
100.0
133.51
100.0
132.59
100.0
131.91
100.0
131.3
100.0
130.81
100.0
130.57
100.0
130.47
100.0
130.12
100.0
129.68
100.0
129.49
100.0
129.31
100.0
129.18
100.0
129.14
100.0
129.0
100.0
128.84
100.0
128.75
100.0
128.45
100.0
128.19
100.0
128.11
100.0
127.98
100.0
127.85
100.0
127.85
100.0
127.88
100.0
127.72
100.0
127.65
100.0
127.49
100.0
127.44
100.0
127.41
100.0
127.43
100.0
127.43
100.0
127.48
100.0
127.19
100.0
127.15
100.0
126.81
100.0
126.81
100.0
126.73
100.0
126.94
100.0
126.86
100.0
126.88
100.0
126.75
100.0
126.6
100.0
126.61
100.0
126.54
100.0
126.61
100.0
126.66
100.0
126.64
100.0
126.54
100.0
126.43
100.0
126.19
100.0
126.06
100.0
126.08
100.0
126.07
100.0
126.11
100.0
126.26
100.0
126.18
100.0
126.12
100.0
125.95
100.0
125.89
100.0
125.86
100.0
125.95
100.0
125.95
100.0
125.96
100.0
125.92
100.0
125.83
100.0
125.64
100.0
125.52
100.0
125.39
100.0
125.49
100.0
125.69
100.0
125.61
100.0
125.47
100.0
125.36
100.0
125.33
100.0
125.42
100.0
125.37
100.0
125.46
100.0
125.44
100.0
125.35
100.0
125.29
100.0
125.03
100.0
124.98
100.0
124.97
100.0
125.11
100.0
125.21
100.0
125.15
100.0
125.15
100.0
125.0
100.0
124.88
100.0
124.86
100.0
125.0
100.0
124.89
100.0
125.01
100.0
125.05
100.0
125.03
100.0
124.85
100.0
124.63
100.0
124.51
100.0
124.48
100.0
124.57
100.0
124.64
100.0
124.66
100.0
124.63
100.0
124.59
100.0
124.51
100.0
124.51
100.0
124.49
100.0
124.57
100.0
124.59
100.0
124.54
100.0
124.55
100.0
124.37
100.0
124.18
100.0
124.18
100.0
124.18
100.0
124.28
100.0
124.29
100.0
124.25
100.0
124.26
100.0
124.09
100.0
124.06
100.0
124.03
100.0
124.12
100.0
124.25
100.0
124.25
100.0
124.17
100.0
123.91
100.0
123.8
100.0
123.78
100.0
123.73
100.0
123.91
100.0
124.0
100.0
123.91
100.0
123.84
100.0
123.8
100.0
123.77
100.0
123.68
100.0
123.77
100.0
123.86
100.0
123.8
100.0
123.84
100.0
123.69
100.0
123.53
100.0
123.4
100.0
123.46
100.0
123.52
100.0
123.55
100.0
123.59
100.0
123.61
100.0
123.53
100.0
123.54
100.0
123.38
100.0
123.57
100.0
123.53
100.0
123.53
100.0
123.6
100.0
123.5
100.0
123.32
100.0
123.11
100.0
123.15
100.0
123.01
100.0
123.17
100.0
123.28
100.0
123.26
100.0
123.24
100.0
123.13
100.0
123.18
100.0
123.13
100.0
123.18
100.0
123.18
100.0
123.3
100.0
123.18
100.0
123.03
100.0
122.92
100.0
122.82
100.0
122.88
100.0
122.86
100.0
123.01
100.0
122.99
100.0
122.96
100.0
122.83
100.0
122.74
100.0
122.92
100.0
122.84
100.0
122.96
100.0
122.87
100.0
122.86
100.0
122.81
100.0
122.7
100.0
122.56
100.0
122.55
100.0
122.6
100.0
122.69
100.0
122.67
100.0
122.65
100.0
122.59
100.0
122.56
100.0
122.52
100.0
122.61
100.0
122.71
100.0
122.74
100.0
122.68
100.0
122.6
100.0
122.43
100.0
122.2
100.0
122.29
100.0
122.3
100.0
122.43
100.0
122.38
100.0
122.41
100.0
122.28
100.0
122.3
100.0
122.21
100.0
122.24
100.0
122.38
100.0
122.34
100.0
122.41
100.0
122.38
100.0
122.26
100.0
122.14
100.0
121.98
100.0
121.96
100.0
122.08
100.0
122.17
100.0
122.17
100.0
122.14
100.0
121.97
100.0
121.89
100.0
122.0
100.0
121.99
100.0
122.14
100.0
122.14
100.0
122.11
100.0
121.98
100.0
121.81
100.0
121.72
100.0
121.68
100.0
121.73
100.0
121.82
100.0
121.86
100.0
121.91
100.0
121.82
100.0
121.8
100.0
121.7
100.0
121.77
100.0
121.84
100.0
121.83
100.0
121.89
100.0
121.84
100.0
121.68
100.0
121.51
100.0
121.48
100.0
121.52
100.0
121.63
100.0
121.66
100.0
121.64
100.0
121.59
100.0
121.51
100.0
121.41
100.0
121.51
100.0
121.58
100.0
121.66
100.0
121.65
100.0
121.58
100.0
121.41
100.0
121.23
100.0
121.24
100.0
121.29
100.0
121.42
100.0
121.39
100.0
121.44
100.0
121.38
100.0
121.33
100.0
121.23
100.0
121.25
100.0
121.3
100.0
121.46
100.0
121.41
100.0
121.29
100.0
121.22
100.0
121.06
100.0
121.0
100.0
120.97
100.0
121.11
100.0
121.22
100.0
121.1
100.0
121.09
100.0
121.01
100.0
121.04
100.0
121.02
100.0
121.08
100.0
121.0
100.0
121.15
100.0
121.18
100.0
121.08
100.0
121.01
100.0
120.89
100.0
120.75
100.0
120.83
100.0
120.91
100.0
120.96
100.0
120.99
100.0
120.86
100.0
120.84
100.0
120.91
100.0
120.83
100.0
120.92
100.0
120.99
100.0
120.97
100.0
120.98
100.0
120.82
100.0
120.76
100.0
120.5
100.0
120.53
100.0
120.67
100.0
120.69
100.0
120.66
100.0
120.62
100.0
120.65
100.0
120.59
100.0
120.57
100.0
120.66
100.0
120.64
100.0
120.71
100.0
120.73
100.0
120.61
100.0
120.56
100.0
120.36
100.0
120.39
100.0
120.47
100.0
120.47
100.0
120.48
100.0
120.59
100.0
120.41
100.0
120.4
100.0
120.33
100.0
120.42
100.0
120.47
100.0
120.56
100.0
120.62
100.0
120.45
100.0
120.41
100.0
120.13
100.0
120.12
100.0
120.17
100.0
120.28
100.0
120.46
100.0
120.37
100.0
120.22
100.0
120.21
100.0
120.22
100.0
120.16
100.0
120.32
100.0
120.42
100.0
120.38
100.0
120.29
100.0
120.17
100.0
120.05
100.0
119.98
100.0
120.03
100.0
120.08
100.0
120.15
100.0
120.19
100.0
120.17
100.0
120.13
100.0
120.09
100.0
120.05
100.0
120.02
100.0
120.09
100.0
120.16
100.0
120.17
100.0
120.17
100.0
119.94
100.0
119.83
100.0
119.83
100.0
119.81
100.0
119.91
100.0
119.97
100.0
120.03
100.0
119.92
100.0
119.93
100.0
119.9
100.0
119.94
100.0
119.84
100.0
119.97
100.0
120.01
100.0
120.04
100.0
119.98
100.0
119.78
100.0
119.65
100.0
119.54
100.0
119.69
100.0
119.68
100.0
119.79
100.0
119.78
100.0
119.74
100.0
119.58
100.0
119.67
100.0
119.69
100.0
119.82
100.0
119.75
100.0
119.86
100.0
119.75
100.0
119.57
100.0
119.46
100.0
119.31
100.0
119.45
100.0
119.58
100.0
119.58
100.0
119.57
100.0
119.55
100.0
119.49
100.0
119.49
100.0
119.48
100.0
119.46
100.0
119.64
100.0
119.66
100.0
119.56
100.0
119.35
100.0
119.28
100.0
119.19
100.0
119.27
100.0
119.39
100.0
119.33
100.0
119.41
100.0
119.31
100.0
119.29
100.0
119.26
100.0
119.25
100.0
119.38
100.0
119.44
100.0
119.45
100.0
119.41
100.0
119.26
100.0
119.17
100.0
119.13
100.0
119.09
100.0
119.2
100.0
119.34
100.0
119.27
100.0
119.28
100.0
119.09
100.0
119.1
100.0
119.17
100.0
119.07
100.0
119.26
100.0
119.26
100.0
119.28
100.0
119.18
100.0
119.07
100.0
118.97
100.0
118.86
100.0
118.94
100.0
118.99
100.0
119.12
100.0
118.99
100.0
119.02
100.0
118.97
100.0
119.0
100.0
119.09
100.0
119.04
100.0
119.08
100.0
119.1
100.0
119.15
100.0
118.99
100.0
118.98
100.0
118.69
100.0
118.68
100.0
118.77
100.0
118.84
100.0
118.88
100.0
118.9
100.0
118.91
100.0
118.8
100.0
118.74
100.0
118.79
100.0
118.81
100.0
118.9
100.0
119.01
100.0
118.91
100.0
118.77
100.0
118.56
100.0
118.5
100.0
118.56
100.0
118.62
100.0
118.73
100.0
118.76
100.0
118.62
100.0
118.68
100.0
118.54
100.0
118.66
100.0
118.73
100.0
118.74
100.0
118.69
100.0
118.65
100.0
118.49
100.0
118.51
100.0
118.41
100.0
118.36
100.0
118.49
100.0
118.57
100.0
118.51
100.0
118.51
100.0
118.54
100.0
118.5
100.0
118.57
100.0
118.5
100.0
118.62
100.0
118.59
100.0
118.59
100.0
118.47
100.0
118.31
100.0
118.25
100.0
118.34
100.0
118.36
100.0
118.43
100.0
118.48
100.0
118.29
100.0
118.35
100.0
118.28
100.0
118.28
100.0
118.39
100.0
118.41
100.0
118.54
100.0
118.35
100.0
118.19
100.0
118.14
100.0
118.09
100.0
118.12
100.0
118.19
100.0
118.23
100.0
118.19
100.0
118.22
100.0
118.07
100.0
118.12
100.0
118.17
100.0
118.16
100.0
118.19
100.0
118.33
100.0
118.25
100.0
118.14
100.0
118.03
100.0
117.95
100.0
117.85
100.0
117.96
100.0
117.97
100.0
118.02
100.0
118.0
100.0
118.0
100.0
117.93
100.0
117.97
100.0
117.98
100.0
118.0
100.0
118.06
100.0
118.07
100.0
118.06
100.0
117.97
100.0
117.85
100.0
117.68
100.0
117.82
100.0
117.75
100.0
117.86
100.0
117.88
100.0
117.9
100.0
117.8
100.0
117.8
100.0
117.84
100.0
117.83
100.0
117.85
100.0
117.96
100.0
117.92
100.0
117.91
100.0
117.6
100.0
117.65
100.0
117.65
100.0
117.55
100.0
117.69
100.0
117.69
100.0
117.73
100.0
117.66
100.0
117.62
100.0
117.63
100.0
117.61
100.0
117.72
100.0
117.76
100.0
117.7
100.0
117.72
100.0
117.66
100.0
117.53
100.0
117.51
100.0
117.46
100.0
117.53
100.0
117.61
100.0
117.65
100.0
117.45
100.0
117.46
100.0
117.55
100.0
117.45
100.0
117.5
100.0
117.68
100.0
117.62
100.0
117.63
100.0
117.48
100.0
117.36
100.0
117.31
100.0
117.26
100.0
117.37
100.0
117.38
100.0
117.48
100.0
117.4
100.0
117.39
100.0
117.37
100.0
117.36
100.0
117.43
100.0
117.45
100.0
117.46
100.0
117.42
100.0
117.31
100.0
117.15
100.0
117.11
100.0
117.09
100.0
117.24
100.0
117.16
100.0
117.26
100.0
117.22
100.0
117.14
100.0
117.14
100.0
117.17
100.0
117.24
100.0
117.23
100.0
117.32
100.0
117.28
100.0
117.08
100.0
117.0
100.0
116.96
100.0
116.94
100.0
116.97
100.0
117.07
100.0
117.15
100.0
117.17
100.0
117.13
100.0
117.11
100.0
117.07
100.0
117.03
100.0
117.13
100.0
117.2
100.0
117.23
100.0
117.17
100.0
117.05
100.0
116.9
100.0
116.9
100.0
116.88
100.0
116.87
100.0
117.05
100.0
116.96
100.0
116.96
100.0
116.89
100.0
116.97
100.0
116.86
100.0
116.97
100.0
116.96
100.0
117.04
100.0
117.06
100.0
117.01
100.0
116.96
100.0
116.75
100.0
116.7
100.0
116.73
100.0
116.84
100.0
116.86
100.0
116.93
100.0
116.84
100.0
116.87
100.0
116.77
100.0
116.85
100.0
116.84
100.0
116.86
100.0
116.98
100.0
116.94
100.0
116.77
100.0
116.67
100.0
116.51
100.0
116.54
100.0
116.66
100.0
116.74
100.0
116.71
100.0
116.77
100.0
116.67
100.0
116.66
100.0
116.65
100.0
116.65
100.0
116.82
100.0
116.75
100.0
116.82
100.0
116.74
100.0
116.62
100.0
116.54
100.0
116.4
100.0
116.47
100.0
116.56
100.0
116.61
100.0
116.59
100.0
116.61
100.0
116.49
100.0
116.47
100.0
116.58
100.0
116.53
100.0
116.57
100.0
116.69
100.0
116.57
100.0
116.48
100.0
116.35
100.0
116.29
100.0
116.38
100.0
116.39
100.0
116.45
100.0
116.4
100.0
116.4
100.0
116.41
100.0
116.41
100.0
116.39
100.0
116.45
100.0
116.55
100.0
116.69
100.0
116.48
100.0
116.29
100.0
116.25
100.0
116.08
100.0
116.21
100.0
116.23
100.0
116.35
100.0
116.33
100.0
116.37
100.0
116.24
100.0
116.17
100.0
116.16
100.0
116.23
100.0
116.33
100.0
116.31
100.0
116.32
100.0
116.06
100.0
116.04
100.0
116.03
100.0
116.08
