Capture frequency (Hz):
100.0
Time (s):
8.0
Gain:
1.0
Number of iterations:
800
100.00
3.25
100.0
-0.19
100.0
0.35
100.0
-0.04
100.0
2.31
100.0
-0.27
100.0
5.27
100.0
4.73
100.0
1.72
100.0
3.95
100.0
9.67
100.0
15.09
100.0
20.52
100.0
21.11
100.0
11.36
100.0
17.96
100.0
27.13
100.0
25.79
100.0
39.89
100.0
41.77
100.0
36.12
100.0
51.67
100.0
54.33
100.0
68.42
100.0
78.17
100.0
76.12
100.0
95.14
100.0
107.3
100.0
103.9
100.0
118.0
100.0
134.64
100.0
128.7
100.0
128.39
100.0
143.62
100.0
154.73
100.0
152.55
100.0
151.01
100.0
149.94
100.0
148.87
100.0
148.12
100.0
147.34
100.0
146.65
100.0
146.14
100.0
145.46
100.0
144.81
100.0
144.12
100.0
143.46
100.0
142.8
100.0
142.17
100.0
141.44
100.0
140.55
100.0
139.61
100.0
138.62
100.0
137.44
100.0
136.34
100.0
135.29
100.0
133.97
100.0
132.33
100.0
131.06
100.0
129.65
100.0
128.52
100.0
127.6
100.0
126.77
100.0
126.22
100.0
125.74
100.0
125.34
100.0
124.8
100.0
124.43
100.0
124.22
100.0
124.0
100.0
123.87
100.0
123.82
100.0
123.52
100.0
123.28
100.0
122.94
100.0
122.66
100.0
122.63
100.0
122.6
100.0
122.55
100.0
122.55
100.0
122.43
100.0
122.37
100.0
122.18
100.0
122.04
100.0
122.06
100.0
122.11
100.0
122.11
100.0
122.02
100.0
121.86
100.0
121.69
100.0
121.54
100.0
121.45
100.0
121.54
100.0
121.5
100.0
121.48
100.0
121.5
100.0
121.35
100.0
121.25
100.0
121.15
100.0
121.17
100.0
121.23
100.0
121.22
100.0
121.34
100.0
121.13
100.0
121.05
100.0
120.84
100.0
120.77
100.0
120.73
100.0
120.84
100.0
120.86
100.0
120.82
100.0
120.8
100.0
120.67
100.0
120.61
100.0
120.56
100.0
120.55
100.0
120.63
100.0
120.7
100.0
120.53
100.0
120.43
100.0
120.2
100.0
120.26
100.0
120.16
100.0
120.23
100.0
120.3
100.0
120.29
100.0
120.26
100.0
120.22
100.0
120.08
100.0
120.09
100.0
120.09
100.0
120.19
100.0
120.28
100.0
120.24
100.0
120.07
100.0
119.89
100.0
119.68
100.0
119.69
100.0
119.69
100.0
119.79
100.0
119.83
100.0
119.8
100.0
119.72
100.0
119.64
100.0
119.57
100.0
119.63
100.0
119.69
100.0
119.74
100.0
119.8
100.0
119.56
100.0
119.47
100.0
119.35
100.0
119.23
100.0
119.32
100.0
119.35
100.0
119.4
100.0
119.39
100.0
119.29
100.0
119.31
100.0
119.31
100.0
119.27
100.0
119.33
100.0
119.32
100.0
119.46
100.0
119.38
100.0
119.15
100.0
119.0
100.0
118.86
100.0
118.96
100.0
119.07
100.0
118.99
100.0
119.15
100.0
119.04
100.0
118.95
100.0
118.89
100.0
119.0
100.0
118.86
100.0
118.95
100.0
118.95
100.0
118.92
100.0
118.76
100.0
118.71
100.0
118.61
100.0
118.6
100.0
118.6
100.0
118.73
100.0
118.71
100.0
118.69
100.0
118.57
100.0
118.64
100.0
118.64
100.0
118.62
100.0
118.56
100.0
118.63
100.0
118.56
100.0
118.48
100.0
118.39
100.0
118.23
100.0
118.34
100.0
118.3
100.0
118.4
100.0
118.45
100.0
118.3
100.0
118.35
100.0
118.27
100.0
118.28
100.0
118.36
100.0
118.39
100.0
118.38
100.0
118.36
100.0
118.14
100.0
118.05
100.0
118.0
100.0
117.98
100.0
118.02
100.0
118.11
100.0
118.14
100.0
118.09
100.0
118.09
100.0
118.03
100.0
118.02
100.0
118.01
100.0
118.04
100.0
118.18
100.0
118.09
100.0
118.09
100.0
118.0
100.0
117.84
100.0
117.79
100.0
117.7
100.0
117.76
100.0
117.78
100.0
117.85
100.0
117.92
100.0
117.76
100.0
117.78
100.0
117.8
100.0
117.71
100.0
117.74
100.0
117.81
100.0
117.91
100.0
117.7
100.0
117.66
100.0
117.4
100.0
117.43
100.0
117.43
100.0
117.5
100.0
117.44
100.0
117.59
100.0
117.54
100.0
117.49
100.0
117.46
100.0
117.55
100.0
117.49
100.0
117.55
100.0
117.57
100.0
117.58
100.0
117.34
100.0
117.25
100.0
117.12
100.0
117.25
100.0
117.27
100.0
117.27
100.0
117.33
100.0
117.25
100.0
117.21
100.0
117.17
100.0
117.25
100.0
117.26
100.0
117.22
100.0
117.34
100.0
117.2
100.0
117.2
100.0
117.04
100.0
116.94
100.0
116.89
100.0
116.98
100.0
117.11
100.0
117.1
100.0
117.07
100.0
116.99
100.0
116.97
100.0
116.95
100.0
117.0
100.0
116.97
100.0
117.04
100.0
117.04
100.0
117.01
100.0
116.85
100.0
116.81
100.0
116.57
100.0
116.67
100.0
116.69
100.0
116.86
100.0
116.88
100.0
116.88
100.0
116.82
100.0
116.75
100.0
116.76
100.0
116.74
100.0
116.81
100.0
116.79
100.0
116.83
100.0
116.67
100.0
116.54
100.0
116.49
100.0
116.46
100.0
116.54
100.0
116.57
100.0
116.61
100.0
116.54
100.0
116.51
100.0
116.47
100.0
116.43
100.0
116.53
100.0
116.5
100.0
116.55
100.0
116.68
100.0
116.45
100.0
116.43
100.0
116.39
100.0
116.15
100.0
116.32
100.0
116.34
100.0
116.31
100.0
116.44
100.0
116.41
100.0
116.26
100.0
116.29
100.0
116.29
100.0
116.26
100.0
116.25
100.0
116.32
100.0
116.38
100.0
116.22
100.0
116.03
100.0
116.02
100.0
115.99
100.0
116.1
100.0
116.11
100.0
116.2
100.0
116.12
100.0
116.09
100.0
116.06
100.0
116.08
100.0
116.08
100.0
116.04
100.0
116.13
100.0
116.16
100.0
116.13
100.0
115.97
100.0
115.8
100.0
115.84
100.0
115.88
100.0
115.87
100.0
115.91
100.0
115.95
100.0
115.98
100.0
115.85
100.0
115.86
100.0
115.85
100.0
115.98
100.0
115.85
100.0
115.96
100.0
115.96
100.0
115.85
100.0
115.63
100.0
115.47
100.0
115.48
100.0
115.54
100.0
115.7
100.0
115.67
100.0
115.62
100.0
115.62
100.0
115.64
100.0
115.57
100.0
115.67
100.0
115.67
100.0
115.68
100.0
115.67
100.0
115.68
100.0
115.45
100.0
115.38
100.0
115.39
100.0
115.46
100.0
115.59
100.0
115.51
100.0
115.46
100.0
115.41
100.0
115.43
100.0
115.29
100.0
115.43
100.0
115.5
100.0
115.47
100.0
115.39
100.0
115.32
100.0
115.34
100.0
115.16
100.0
115.14
100.0
115.19
100.0
115.3
100.0
115.37
100.0
115.33
100.0
115.22
100.0
115.15
100.0
115.27
100.0
115.24
100.0
115.3
100.0
115.4
100.0
115.32
100.0
115.2
100.0
115.18
100.0
114.98
100.0
115.07
100.0
115.03
100.0
115.11
100.0
115.08
100.0
115.15
100.0
115.06
100.0
115.12
100.0
115.04
100.0
115.01
100.0
115.08
100.0
115.21
100.0
115.24
100.0
115.11
100.0
115.08
100.0
115.0
100.0
114.89
100.0
114.92
100.0
114.94
100.0
114.97
100.0
114.94
100.0
115.07
100.0
114.98
100.0
114.89
100.0
114.79
100.0
114.9
100.0
114.86
100.0
114.95
100.0
115.06
100.0
114.95
100.0
114.84
100.0
114.74
100.0
114.67
100.0
114.63
100.0
114.65
100.0
114.9
100.0
114.86
100.0
114.75
100.0
114.76
100.0
114.72
100.0
114.71
100.0
114.85
100.0
114.85
100.0
114.91
100.0
114.84
100.0
114.65
100.0
114.57
100.0
114.46
100.0
114.43
100.0
114.52
100.0
114.57
100.0
114.57
100.0
114.56
100.0
114.59
100.0
114.51
100.0
114.6
100.0
114.64
100.0
114.71
100.0
114.6
100.0
114.63
100.0
114.51
100.0
114.4
100.0
114.33
100.0
114.31
100.0
114.36
100.0
114.43
100.0
114.45
100.0
114.35
100.0
114.4
100.0
114.35
100.0
114.36
100.0
114.36
100.0
114.52
100.0
114.47
100.0
114.5
100.0
114.28
100.0
114.25
100.0
114.21
100.0
114.14
100.0
114.25
100.0
114.22
100.0
114.33
100.0
114.21
100.0
114.17
100.0
114.25
100.0
114.21
100.0
114.19
100.0
114.21
100.0
114.37
100.0
114.29
100.0
114.12
100.0
113.96
100.0
113.95
100.0
113.97
100.0
113.99
100.0
114.13
100.0
114.09
100.0
114.18
100.0
114.05
100.0
113.95
100.0
114.04
100.0
113.89
100.0
114.09
100.0
114.14
100.0
114.08
100.0
114.07
100.0
113.96
100.0
113.78
100.0
113.67
100.0
113.79
100.0
113.76
100.0
113.95
100.0
113.94
100.0
114.02
100.0
113.92
100.0
113.87
100.0
113.82
100.0
113.81
100.0
113.92
100.0
113.92
100.0
113.98
100.0
113.87
100.0
113.76
100.0
113.59
100.0
113.61
100.0
113.61
100.0
113.66
100.0
113.77
100.0
113.8
100.0
113.7
100.0
113.66
100.0
113.72
100.0
113.66
100.0
113.72
100.0
113.84
100.0
113.84
100.0
113.64
100.0
113.64
100.0
113.45
100.0
113.45
100.0
113.5
100.0
113.6
100.0
113.56
100.0
113.64
100.0
113.5
100.0
113.57
100.0
113.45
100.0
113.45
100.0
113.54
100.0
113.69
100.0
113.62
100.0
113.57
100.0
113.47
100.0
113.31
100.0
113.33
100.0
113.28
100.0
113.34
100.0
113.44
100.0
113.4
100.0
113.42
100.0
113.32
100.0
113.38
100.0
113.31
100.0
113.33
100.0
113.48
100.0
113.53
100.0
113.39
100.0
113.31
100.0
113.21
100.0
113.18
100.0
113.18
100.0
113.29
100.0
113.15
100.0
113.27
100.0
113.21
100.0
113.2
100.0
113.19
100.0
113.2
100.0
113.25
100.0
113.31
100.0
113.33
100.0
113.12
100.0
113.12
100.0
113.03
100.0
112.97
100.0
113.03
100.0
113.02
100.0
113.08
100.0
113.06
100.0
113.13
100.0
113.09
100.0
113.14
100.0
113.09
100.0
113.13
100.0
113.08
100.0
113.11
100.0
113.23
100.0
113.18
100.0
113.04
100.0
112.9
100.0
112.78
100.0
112.95
100.0
112.9
100.0
112.98
100.0
112.93
100.0
112.87
100.0
112.84
100.0
112.85
100.0
112.78
100.0
112.89
100.0
112.98
100.0
112.92
100.0
112.93
100.0
112.78
100.0
112.9
100.0
112.64
100.0
112.7
100.0
112.79
100.0
112.83
100.0
112.81
100.0
112.73
100.0
112.7
100.0
112.65
100.0
112.78
100.0
112.72
100.0
112.8
100.0
112.87
100.0
112.78
100.0
112.73
100.0
112.48
100.0
112.48
100.0
112.56
100.0
112.69
100.0
112.69
100.0
112.59
100.0
112.67
100.0
112.57
100.0
112.62
100.0
112.59
100.0
112.69
100.0
112.71
100.0
112.71
100.0
112.66
100.0
112.47
100.0
112.51
100.0
112.26
100.0
112.37
100.0
112.44
100.0
112.52
100.0
112.5
100.0
112.41
100.0
112.49
100.0
112.41
100.0
112.46
100.0
112.5
100.0
112.56
100.0
112.52
100.0
112.48
100.0
112.37
100.0
112.27
100.0
112.14
100.0
112.3
100.0
112.3
100.0
112.42
100.0
112.4
100.0
112.31
100.0
112.39
100.0
112.32
100.0
112.26
100.0
112.31
100.0
112.37
100.0
112.4
100.0
112.36
100.0
112.23
100.0
112.09
100.0
112.12
100.0
112.09
100.0
112.18
100.0
112.23
100.0
112.28
100.0
112.26
100.0
112.25
100.0
112.11
100.0
112.18
100.0
112.21
100.0
112.26
100.0
112.41
100.0
112.27
100.0
112.16
100.0
112.09
100.0
112.11
100.0
112.04
100.0
111.97
100.0
112.09
100.0
112.06
100.0
112.03
100.0
112.14
100.0
112.08
100.0
111.95
100.0
111.94
100.0
111.97
100.0
112.13
100.0
112.14
100.0
112.18
100.0
112.18
100.0
111.91
100.0
111.83
100.0
111.73
100.0
111.75
100.0
111.82
100.0
111.94
100.0
111.92
100.0
111.95
100.0
111.87
100.0
111.96
100.0
111.91
100.0
111.96
100.0
111.99
100.0
112.08
100.0
111.99
100.0
111.85
100.0
111.82
100.0
111.64
100.0
111.65
100.0
111.6
100.0
111.79
100.0
111.8
100.0
111.81
100.0
111.71
100.0
111.71
100.0
111.73
100.0
111.76
100.0
111.85
100.0
111.82
100.0
111.88
100.0
111.64
100.0
111.74
100.0
111.62
100.0
111.56
100.0
111.57
100.0
111.6
100.0
111.72
100.0
111.67
100.0
111.61
100.0
111.61
100.0
111.58
100.0
111.67
100.0
111.75
100.0
111.8
100.0
111.75
100.0
111.69
100.0
111.48
100.0
111.43
100.0
111.45
100.0
111.39
100.0
111.5
100.0
111.58
100.0
111.55
100.0
111.48
100.0
111.48
100.0
111.47
100.0
111.49
100.0
111.54
100.0
111.45
100.0
111.64
100.0
111.58
100.0
111.44
100.0
111.43
100.0
111.34
100.0
111.26
100.0
111.38
100.0
111.39
100.0
111.48
100.0
111.41
100.0
111.41
100.0
111.28
100.0
111.39
100.0
111.4
100.0
111.44
100.0
111.51
100.0
111.42
100.0
111.32
100.0
111.14
100.0
111.11
100.0
111.14
100.0
111.26
100.0
111.28
100.0
111.3
100.0
111.25
