Capture frequency (Hz):
100.0
Time (s):
8.0
Gain:
1.0
Number of iterations:
800
100.00
3.11
100.0
-0.56
100.0
-0.1
100.0
-0.48
100.0
-0.79
100.0
0.74
100.0
3.51
100.0
3.27
100.0
4.42
100.0
-3.22
100.0
-1.14
100.0
8.05
100.0
6.84
100.0
13.9
100.0
-2.35
100.0
5.54
100.0
7.14
100.0
9.41
100.0
15.79
100.0
17.75
100.0
24.2
100.0
10.27
100.0
15.54
100.0
22.33
100.0
22.55
100.0
35.92
100.0
35.77
100.0
30.34
100.0
34.18
100.0
39.86
100.0
52.19
100.0
47.73
100.0
44.72
100.0
54.21
100.0
55.43
100.0
53.85
100.0
60.67
100.0
60.07
100.0
63.07
100.0
72.77
100.0
73.53
100.0
73.01
100.0
84.63
100.0
82.13
100.0
83.8
100.0
94.47
100.0
101.26
100.0
97.29
100.0
108.9
100.0
108.98
100.0
109.4
100.0
107.14
100.0
116.23
100.0
119.29
100.0
120.23
100.0
118.23
100.0
127.6
100.0
131.7
100.0
130.37
100.0
127.77
100.0
127.68
100.0
139.62
100.0
141.31
100.0
140.86
100.0
139.68
100.0
138.91
100.0
138.05
100.0
137.35
100.0
136.59
100.0
135.77
100.0
135.12
100.0
134.2
100.0
133.29
100.0
132.24
100.0
131.23
100.0
130.56
100.0
129.84
100.0
129.39
100.0
128.92
100.0
128.5
100.0
128.04
100.0
127.69
100.0
127.36
100.0
127.12
100.0
126.91
100.0
126.87
100.0
126.7
100.0
126.43
100.0
126.21
100.0
125.96
100.0
125.85
100.0
125.81
100.0
125.77
100.0
125.75
100.0
125.73
100.0
125.55
100.0
125.46
100.0
125.22
100.0
125.18
100.0
125.25
100.0
125.21
100.0
125.23
100.0
125.02
100.0
124.8
100.0
124.62
100.0
124.51
100.0
124.44
100.0
124.58
100.0
124.58
100.0
124.57
100.0
124.43
100.0
124.4
100.0
124.25
100.0
124.17
100.0
124.26
100.0
124.26
100.0
124.21
100.0
124.17
100.0
124.01
100.0
123.78
100.0
123.65
100.0
123.73
100.0
123.74
100.0
123.81
100.0
123.78
100.0
123.78
100.0
123.59
100.0
123.58
100.0
123.5
100.0
123.51
100.0
123.54
100.0
123.49
100.0
123.46
100.0
123.35
100.0
123.17
100.0
123.06
100.0
122.99
100.0
123.02
100.0
123.07
100.0
123.08
100.0
123.16
100.0
123.14
100.0
123.05
100.0
122.95
100.0
122.93
100.0
122.85
100.0
122.91
100.0
122.86
100.0
122.93
100.0
122.84
100.0
122.58
100.0
122.43
100.0
122.46
100.0
122.46
100.0
122.57
100.0
122.67
100.0
122.67
100.0
122.46
100.0
122.36
100.0
122.3
100.0
122.4
100.0
122.36
100.0
122.43
100.0
122.41
100.0
122.27
100.0
122.18
100.0
122.0
100.0
121.88
100.0
121.94
100.0
122.09
100.0
122.11
100.0
122.14
100.0
122.1
100.0
122.04
100.0
121.91
100.0
121.83
100.0
121.94
100.0
121.97
100.0
121.98
100.0
121.92
100.0
121.91
100.0
121.71
100.0
121.56
100.0
121.55
100.0
121.58
100.0
121.71
100.0
121.77
100.0
121.82
100.0
121.67
100.0
121.53
100.0
121.44
100.0
121.35
100.0
121.48
100.0
121.61
100.0
121.58
100.0
121.45
100.0
121.31
100.0
121.19
100.0
121.14
100.0
121.18
100.0
121.29
100.0
121.4
100.0
121.4
100.0
121.15
100.0
121.11
100.0
121.12
100.0
121.18
100.0
121.19
100.0
121.33
100.0
121.25
100.0
121.18
100.0
120.99
100.0
120.87
100.0
120.85
100.0
120.87
100.0
120.97
100.0
121.1
100.0
121.05
100.0
121.01
100.0
120.94
100.0
120.93
100.0
120.81
100.0
121.06
100.0
120.89
100.0
120.95
100.0
120.97
100.0
120.8
100.0
120.62
100.0
120.48
100.0
120.54
100.0
120.59
100.0
120.65
100.0
120.7
100.0
120.75
100.0
120.75
100.0
120.56
100.0
120.44
100.0
120.56
100.0
120.62
100.0
120.65
100.0
120.55
100.0
120.49
100.0
120.41
100.0
120.33
100.0
120.24
100.0
120.33
100.0
120.37
100.0
120.54
100.0
120.52
100.0
120.4
100.0
120.34
100.0
120.26
100.0
120.36
100.0
120.32
100.0
120.39
100.0
120.45
100.0
120.35
100.0
120.09
100.0
120.05
100.0
120.02
100.0
120.01
100.0
120.04
100.0
120.08
100.0
120.12
100.0
120.2
100.0
120.11
100.0
120.08
100.0
120.0
100.0
119.99
100.0
119.99
100.0
120.09
100.0
120.07
100.0
120.11
100.0
120.01
100.0
119.86
100.0
119.81
100.0
119.66
100.0
119.75
100.0
119.79
100.0
119.91
100.0
119.92
100.0
119.82
100.0
119.71
100.0
119.67
100.0
119.7
100.0
119.71
100.0
119.78
100.0
119.8
100.0
119.82
100.0
119.6
100.0
119.5
100.0
119.41
100.0
119.43
100.0
119.58
100.0
119.73
100.0
119.66
100.0
119.64
100.0
119.43
100.0
119.47
100.0
119.41
100.0
119.57
100.0
119.54
100.0
119.61
100.0
119.55
100.0
119.42
100.0
119.36
100.0
119.25
100.0
119.2
100.0
119.33
100.0
119.29
100.0
119.46
100.0
119.37
100.0
119.4
100.0
119.28
100.0
119.29
100.0
119.35
100.0
119.31
100.0
119.33
100.0
119.34
100.0
119.28
100.0
119.07
100.0
119.01
100.0
119.03
100.0
119.03
100.0
119.13
100.0
119.23
100.0
119.21
100.0
119.11
100.0
119.08
100.0
119.13
100.0
119.03
100.0
119.14
100.0
119.04
100.0
119.18
100.0
119.12
100.0
119.07
100.0
118.92
100.0
118.83
100.0
118.85
100.0
118.8
100.0
118.95
100.0
118.96
100.0
118.94
100.0
118.9
100.0
118.93
100.0
118.86
100.0
118.86
100.0
118.87
100.0
118.97
100.0
118.93
100.0
118.89
100.0
118.77
100.0
118.67
100.0
118.67
100.0
118.59
100.0
118.72
100.0
118.76
100.0
118.82
100.0
118.78
100.0
118.62
100.0
118.59
100.0
118.64
100.0
118.71
100.0
118.68
100.0
118.76
100.0
118.73
100.0
118.62
100.0
118.47
100.0
118.35
100.0
118.37
100.0
118.49
100.0
118.55
100.0
118.62
100.0
118.57
100.0
118.54
100.0
118.38
100.0
118.34
100.0
118.4
100.0
118.44
100.0
118.55
100.0
118.48
100.0
118.45
100.0
118.25
100.0
118.16
100.0
118.16
100.0
118.23
100.0
118.41
100.0
118.38
100.0
118.38
100.0
118.25
100.0
118.27
100.0
118.2
100.0
118.24
100.0
118.28
100.0
118.3
100.0
118.39
100.0
118.24
100.0
118.18
100.0
118.06
100.0
118.04
100.0
118.06
100.0
118.05
100.0
118.18
100.0
118.18
100.0
118.23
100.0
118.08
100.0
118.09
100.0
118.07
100.0
118.04
100.0
118.14
100.0
118.13
100.0
118.17
100.0
118.11
100.0
118.11
100.0
117.92
100.0
117.86
100.0
117.82
100.0
117.83
100.0
118.03
100.0
117.99
100.0
117.95
100.0
117.9
100.0
117.8
100.0
117.84
100.0
117.91
100.0
118.02
100.0
117.9
100.0
118.1
100.0
117.99
100.0
117.86
100.0
117.68
100.0
117.73
100.0
117.61
100.0
117.74
100.0
117.88
100.0
117.81
100.0
117.84
100.0
117.7
100.0
117.69
100.0
117.72
100.0
117.77
100.0
117.8
100.0
117.75
100.0
117.74
100.0
117.62
100.0
117.58
100.0
117.51
100.0
117.5
100.0
117.7
100.0
117.66
100.0
117.73
100.0
117.6
100.0
117.62
100.0
117.52
100.0
117.58
100.0
117.63
100.0
117.63
100.0
117.71
100.0
117.6
100.0
117.42
100.0
117.33
100.0
117.3
100.0
117.34
100.0
117.4
100.0
117.47
100.0
117.46
100.0
117.41
100.0
117.34
100.0
117.45
100.0
117.43
100.0
117.51
100.0
117.53
100.0
117.47
100.0
117.48
100.0
117.25
100.0
117.26
100.0
117.17
100.0
117.37
100.0
117.32
100.0
117.37
100.0
117.42
100.0
117.32
100.0
117.32
100.0
117.26
100.0
117.36
100.0
117.33
100.0
117.39
100.0
117.31
100.0
117.22
100.0
117.19
100.0
117.07
100.0
116.99
100.0
117.15
100.0
117.16
100.0
117.27
100.0
117.28
100.0
117.15
100.0
117.09
100.0
117.16
100.0
117.19
100.0
117.18
100.0
117.34
100.0
117.15
100.0
117.21
100.0
117.13
100.0
116.98
100.0
116.88
100.0
116.93
100.0
117.03
100.0
117.06
100.0
117.1
100.0
117.08
100.0
117.01
100.0
116.94
100.0
116.88
100.0
116.97
100.0
117.05
100.0
117.04
100.0
117.05
100.0
116.97
100.0
116.96
100.0
116.8
100.0
116.7
100.0
116.76
100.0
116.79
100.0
116.85
100.0
116.97
100.0
116.93
100.0
116.85
100.0
116.77
100.0
116.75
100.0
116.78
100.0
116.87
100.0
116.95
100.0
116.93
100.0
116.84
100.0
116.67
100.0
116.66
100.0
116.61
100.0
116.74
100.0
116.85
100.0
116.8
100.0
116.85
100.0
116.75
100.0
116.75
100.0
116.62
100.0
116.61
100.0
116.76
100.0
116.81
100.0
116.87
100.0
116.68
100.0
116.53
100.0
116.47
100.0
116.48
100.0
116.47
100.0
116.68
100.0
116.69
100.0
116.74
100.0
116.57
100.0
116.58
100.0
116.5
100.0
116.65
100.0
116.63
100.0
116.65
100.0
116.66
100.0
116.65
100.0
116.4
100.0
116.38
100.0
116.34
100.0
116.42
100.0
116.55
100.0
116.59
100.0
116.56
100.0
116.51
100.0
116.41
100.0
116.28
100.0
116.5
100.0
116.42
100.0
116.4
100.0
116.39
100.0
116.48
100.0
116.37
100.0
116.22
100.0
116.22
100.0
116.25
100.0
116.32
100.0
116.52
100.0
116.47
100.0
116.39
100.0
116.35
100.0
116.32
100.0
116.35
100.0
116.3
100.0
116.52
100.0
116.44
100.0
116.38
100.0
116.18
100.0
116.11
100.0
116.1
100.0
116.26
100.0
116.29
100.0
116.37
100.0
116.39
100.0
116.27
100.0
116.34
100.0
116.22
100.0
116.24
100.0
116.32
100.0
116.35
100.0
116.4
100.0
116.28
100.0
116.19
100.0
116.0
100.0
116.02
100.0
116.02
100.0
116.18
100.0
116.15
100.0
116.05
100.0
116.21
100.0
116.17
100.0
116.17
100.0
116.03
100.0
116.21
100.0
116.15
100.0
116.15
100.0
116.14
100.0
116.04
100.0
115.98
100.0
115.95
100.0
115.83
100.0
115.95
100.0
116.05
100.0
116.04
100.0
116.03
100.0
116.13
100.0
115.97
100.0
115.96
100.0
115.9
100.0
115.91
100.0
115.97
100.0
116.06
100.0
116.05
100.0
116.09
100.0
115.91
100.0
115.79
100.0
115.72
100.0
115.68
100.0
115.76
100.0
115.88
100.0
115.92
100.0
115.92
100.0
115.82
100.0
115.83
100.0
115.83
100.0
115.77
100.0
115.9
100.0
115.94
100.0
115.97
100.0
115.84
100.0
115.73
100.0
115.66
100.0
115.64
100.0
115.65
100.0
115.75
100.0
115.9
100.0
115.8
100.0
115.74
100.0
115.67
100.0
115.65
100.0
115.67
100.0
115.76
100.0
115.79
100.0
115.77
100.0
115.77
100.0
115.62
100.0
115.49
100.0
115.39
100.0
115.56
100.0
115.62
100.0
115.68
100.0
115.64
100.0
115.65
100.0
115.5
100.0
115.53
100.0
115.57
100.0
115.64
100.0
115.75
100.0
115.78
100.0
115.55
100.0
115.46
100.0
115.34
100.0
115.37
100.0
115.42
100.0
115.57
100.0
115.53
100.0
115.6
100.0
115.67
100.0
115.44
100.0
115.46
100.0
115.51
100.0
115.5
100.0
115.6
100.0
115.69
100.0
115.54
100.0
115.34
100.0
115.25
100.0
115.19
100.0
115.31
100.0
115.42
100.0
115.51
100.0
115.55
100.0
115.47
100.0
115.38
100.0
115.35
100.0
115.39
100.0
115.44
100.0
115.42
100.0
115.48
100.0
115.37
100.0
115.21
100.0
115.15
100.0
115.13
100.0
115.17
100.0
115.34
100.0
115.4
100.0
115.38
100.0
115.2
100.0
115.25
100.0
115.23
100.0
115.22
100.0
115.32
100.0
115.29
100.0
115.35
100.0
115.32
100.0
115.11
100.0
115.04
100.0
115.14
100.0
115.09
100.0
115.16
100.0
115.24
100.0
115.34
100.0
115.26
100.0
115.17
100.0
115.13
100.0
115.17
100.0
115.18
100.0
115.26
100.0
115.25
100.0
115.27
100.0
115.12
100.0
114.99
100.0
114.89
100.0
114.9
100.0
115.02
100.0
115.12
100.0
115.11
100.0
115.24
100.0
115.1
100.0
115.01
100.0
115.06
100.0
115.04
100.0
115.11
100.0
115.1
100.0
115.17
100.0
115.14
100.0
115.05
100.0
114.86
100.0
114.82
100.0
114.79
100.0
114.86
100.0
114.97
100.0
115.0
100.0
115.02
100.0
114.94
100.0
114.94
100.0
114.87
100.0
114.98
100.0
114.89
100.0
114.92
100.0
115.07
100.0
114.97
100.0
114.83
100.0
114.75
100.0
114.65
100.0
114.75
100.0
114.83
100.0
114.99
100.0
114.94
100.0
114.95
100.0
114.88
100.0
114.72
100.0
114.79
100.0
114.91
100.0
115.04
100.0
114.89
100.0
114.87
100.0
114.83
100.0
114.72
100.0
114.59
100.0
114.6
100.0
114.68
