Capture frequency (Hz):
100.0
Time (s):
4.0
Gain:
1.0
Number of iterations:
400
100.00
-0.76
100.0
2.84
100.0
-0.67
100.0
0.99
100.0
0.59
100.0
0.62
100.0
1.45
100.0
2.45
100.0
-0.58
100.0
4.51
100.0
-0.21
100.0
5.7
100.0
9.25
100.0
7.02
100.0
8.25
100.0
3.26
100.0
6.64
100.0
12.04
100.0
13.67
100.0
22.37
100.0
7.26
100.0
10.22
100.0
18.71
100.0
24.2
100.0
33.06
100.0
16.94
100.0
20.64
100.0
28.72
100.0
36.6
100.0
34.59
100.0
33.48
100.0
34.27
100.0
46.35
100.0
39.46
100.0
43.49
100.0
50.45
100.0
56.4
100.0
53.61
100.0
59.8
100.0
67.31
100.0
60.7
100.0
67.85
100.0
73.02
100.0
70.47
100.0
76.08
100.0
79.86
100.0
79.34
100.0
91.85
100.0
91.1
100.0
93.42
100.0
90.04
100.0
95.28
100.0
103.08
100.0
101.6
100.0
99.94
100.0
104.54
100.0
113.65
100.0
109.51
100.0
110.74
100.0
110.33
100.0
120.33
100.0
121.69
100.0
121.11
100.0
120.63
100.0
120.2
100.0
119.88
100.0
119.62
100.0
119.27
100.0
119.28
100.0
119.12
100.0
118.94
100.0
118.83
100.0
118.58
100.0
116.11
100.0
117.7
100.0
116.92
100.0
127.41
100.0
129.3
100.0
128.19
100.0
127.4
100.0
126.75
100.0
126.18
100.0
125.63
100.0
125.09
100.0
124.55
100.0
123.88
100.0
123.41
100.0
122.72
100.0
122.13
100.0
121.29
100.0
120.58
100.0
120.05
100.0
119.32
100.0
118.78
100.0
118.28
100.0
117.9
100.0
117.57
100.0
117.49
100.0
117.25
100.0
117.36
100.0
117.44
100.0
117.49
100.0
117.56
100.0
117.61
100.0
117.47
100.0
117.38
100.0
117.04
100.0
116.9
100.0
116.51
100.0
116.29
100.0
116.03
100.0
115.92
100.0
115.86
100.0
115.82
100.0
115.83
100.0
115.96
100.0
116.21
100.0
116.23
100.0
116.37
100.0
116.37
100.0
116.35
100.0
116.15
100.0
116.0
100.0
115.68
100.0
115.44
100.0
115.28
100.0
115.05
100.0
114.91
100.0
114.95
100.0
114.97
100.0
115.03
100.0
115.19
100.0
115.38
100.0
115.51
100.0
115.64
100.0
115.58
100.0
115.49
100.0
115.26
100.0
115.01
100.0
114.87
100.0
114.64
100.0
114.48
100.0
114.33
100.0
114.3
100.0
114.29
100.0
114.37
100.0
114.5
100.0
114.75
100.0
114.92
100.0
115.02
100.0
115.01
100.0
114.98
100.0
114.87
100.0
114.71
100.0
114.41
100.0
114.23
100.0
113.92
100.0
113.8
100.0
113.78
100.0
113.85
100.0
113.86
100.0
114.0
100.0
114.16
100.0
114.23
100.0
114.41
100.0
114.62
100.0
114.5
100.0
114.45
100.0
114.3
100.0
113.99
100.0
113.7
100.0
113.48
100.0
113.41
100.0
113.24
100.0
113.26
100.0
113.35
100.0
113.42
100.0
113.67
100.0
113.77
100.0
114.01
100.0
114.18
100.0
114.05
100.0
113.9
100.0
113.88
100.0
113.59
100.0
113.42
100.0
113.16
100.0
113.06
100.0
112.9
100.0
112.83
100.0
112.85
100.0
113.0
100.0
113.12
100.0
113.28
100.0
113.47
100.0
113.6
100.0
113.8
100.0
113.73
100.0
113.65
100.0
113.43
100.0
113.21
100.0
112.97
100.0
112.85
100.0
112.68
100.0
112.57
100.0
112.51
100.0
112.59
100.0
112.81
100.0
113.01
100.0
113.16
100.0
113.17
100.0
113.29
100.0
113.34
100.0
113.32
100.0
113.08
100.0
112.99
100.0
112.75
100.0
112.56
100.0
112.35
100.0
112.18
100.0
112.21
100.0
112.25
100.0
112.3
100.0
112.4
100.0
112.61
100.0
112.76
100.0
112.97
100.0
112.93
100.0
112.97
100.0
112.92
100.0
112.74
100.0
112.45
100.0
112.28
100.0
112.12
100.0
111.86
100.0
111.93
100.0
111.8
100.0
112.01
100.0
112.11
100.0
112.32
100.0
112.37
100.0
112.58
100.0
112.74
100.0
112.67
100.0
112.6
100.0
112.53
100.0
112.28
100.0
112.03
100.0
111.88
100.0
111.72
100.0
111.65
100.0
111.52
100.0
111.64
100.0
111.75
100.0
111.95
100.0
112.08
100.0
112.29
100.0
112.41
100.0
112.45
100.0
112.39
100.0
112.28
100.0
112.09
100.0
111.85
100.0
111.67
100.0
111.49
100.0
111.3
100.0
111.34
100.0
111.34
100.0
111.38
100.0
111.57
100.0
111.72
100.0
111.78
100.0
112.12
100.0
112.14
100.0
112.01
100.0
112.05
100.0
111.97
100.0
111.76
100.0
111.42
100.0
111.14
100.0
111.13
100.0
111.08
100.0
111.07
100.0
111.12
100.0
111.21
100.0
111.32
100.0
111.57
100.0
111.78
100.0
111.85
100.0
111.96
100.0
111.8
100.0
111.65
100.0
111.57
100.0
111.3
100.0
111.12
100.0
110.96
100.0
110.84
100.0
110.79
100.0
110.83
100.0
110.95
100.0
111.05
100.0
111.29
100.0
111.47
100.0
111.52
100.0
111.71
100.0
111.68
100.0
111.62
100.0
111.54
100.0
111.22
100.0
110.99
100.0
110.74
100.0
110.58
100.0
110.63
100.0
110.57
100.0
110.63
100.0
110.81
100.0
111.01
100.0
111.16
100.0
111.31
100.0
111.5
100.0
111.49
100.0
111.37
100.0
111.23
100.0
110.85
100.0
110.73
100.0
110.56
100.0
110.46
100.0
110.36
100.0
110.34
100.0
110.42
100.0
110.59
100.0
110.7
100.0
110.96
100.0
111.12
100.0
111.2
100.0
111.24
100.0
111.15
100.0
110.99
100.0
110.71
100.0
110.47
100.0
110.34
100.0
110.12
100.0
110.15
100.0
110.07
100.0
110.06
100.0
110.23
100.0
110.39
100.0
110.64
100.0
110.72
100.0
110.97
100.0
110.97
100.0
110.95
100.0
110.83
100.0
110.76
100.0
110.47
100.0
110.29
100.0
110.13
100.0
109.87
100.0
109.89
100.0
109.94
100.0
110.03
100.0
110.15
100.0
110.28
100.0
110.63
100.0
110.71
100.0
110.85
100.0
110.76
100.0
110.7
100.0
110.58
100.0
110.31
100.0
110.08
100.0
110.04
100.0
109.87
100.0
109.74
100.0
109.75
100.0
109.75
100.0
109.89
100.0
110.03
100.0
110.13
100.0
110.43
100.0
110.49
100.0
110.65
100.0
110.54
100.0
110.51
100.0
110.39
100.0
110.12
100.0
109.92
100.0
109.68
100.0
109.54
100.0
109.54
100.0
109.54
100.0
109.57
100.0
109.78
100.0
109.96
100.0
110.04
100.0
110.31
100.0
110.4
100.0
110.45
100.0
110.37
100.0
110.21
100.0
109.95
